Time,Fp1-CPz,Fp2-CPz,F3-CPz,F4-CPz,F7-CPz,F8-CPz,C3-CPz,C4-CPz,T7-CPz,T8-CPz,P3-CPz,P4-CPz,P7-CPz,P8-CPz,O1-CPz,O2-CPz,Fz-CPz,Cz-CPz,Pz-CPz
2019.07.22 14:01:19.224,-21.913,-18.078,-19.308,-13.968,-11.385,-15.067,5.364,-3.924,10.020,-8.366,9.104,-25.009,-26.280,-1.935,-34.138,-46.929,-23.227,-19.235,-28.565
2019.07.22 14:01:19.228,-36.499,-14.711,-38.711,-31.769,-21.234,-26.334,14.629,6.049,19.839,-4.535,22.015,-3.035,-19.576,27.285,-29.144,-11.240,-39.352,-29.012,-25.819
2019.07.22 14:01:19.232,-30.989,-1.556,-36.486,-29.104,-17.631,-17.320,14.208,8.257,21.890,4.716,22.328,14.788,-4.945,40.398,-11.939,17.604,-35.856,-23.073,-11.243
2019.07.22 14:01:19.236,-11.570,12.777,-16.643,-10.511,-3.024,5.597,4.809,1.677,17.220,14.584,11.891,19.891,9.804,34.486,8.389,26.038,-17.147,-6.504,6.282
2019.07.22 14:01:19.240,7.344,20.164,5.781,10.164,12.710,27.443,-6.976,-8.184,10.495,19.675,-1.078,12.288,16.584,18.419,20.664,14.719,3.318,9.227,16.314
2019.07.22 14:01:19.244,13.958,18.224,15.897,20.034,19.749,35.493,-13.885,-13.836,6.305,17.404,-8.459,-0.419,12.310,5.372,19.015,-3.937,12.955,14.750,14.083
2019.07.22 14:01:19.248,6.923,10.994,9.221,15.814,15.225,27.764,-13.263,-11.617,6.075,9.499,-7.880,-9.160,0.657,3.165,6.495,-15.873,8.500,9.108,3.315
2019.07.22 14:01:19.252,-5.408,4.958,-6.486,4.594,4.406,13.043,-8.391,-4.180,7.790,0.711,-3.361,-9.777,-10.824,9.685,-7.581,-15.193,-3.110,-0.678,-7.213
2019.07.22 14:01:19.256,-12.868,3.873,-18.478,-3.117,-4.248,3.081,-5.179,2.081,8.337,-4.274,-1.000,-5.009,-15.961,16.243,-14.362,-6.679,-11.405,-5.904,-10.443
2019.07.22 14:01:19.260,-11.639,6.418,-19.125,-2.018,-5.857,3.523,-7.213,2.313,6.248,-3.585,-3.636,-1.129,-13.712,15.378,-11.185,-0.123,-10.820,-3.013,-5.808
2019.07.22 14:01:19.264,-6.245,8.124,-10.912,4.514,-2.293,10.581,-13.203,-3.174,2.607,1.101,-8.861,-2.414,-7.935,6.615,-2.314,-1.776,-4.269,4.366,1.381
2019.07.22 14:01:19.268,-4.491,5.548,-3.018,8.310,0.343,15.406,-18.621,-9.649,-0.331,6.063,-11.654,-7.985,-3.802,-4.041,5.290,-9.780,0.417,9.305,4.887
2019.07.22 14:01:19.272,-10.242,-0.888,-3.043,3.814,-2.624,11.940,-19.781,-12.143,-1.309,8.023,-8.999,-13.198,-3.879,-9.706,7.430,-16.649,-2.401,7.692,2.541
2019.07.22 14:01:19.276,-20.258,-7.552,-10.960,-7.316,-10.537,1.649,-16.789,-9.395,-1.022,5.944,-2.434,-13.961,-6.791,-8.202,5.126,-16.070,-11.577,1.417,-2.668
2019.07.22 14:01:19.280,-27.405,-10.845,-19.927,-17.927,-18.310,-8.341,-13.055,-4.424,-1.162,1.194,3.438,-10.153,-9.085,-3.126,2.613,-8.159,-20.608,-3.711,-5.807
2019.07.22 14:01:19.284,-27.017,-10.125,-22.657,-21.494,-20.991,-11.556,-12.101,-1.581,-2.621,-3.706,4.907,-5.413,-8.396,-0.061,3.099,0.890,-23.368,-3.142,-4.423
2019.07.22 14:01:19.288,-20.762,-7.922,-17.594,-17.283,-17.915,-7.380,-14.605,-2.828,-4.604,-6.688,2.040,-3.789,-5.273,-1.624,6.034,4.071,-19.074,2.676,-0.384
2019.07.22 14:01:19.292,-14.849,-7.513,-9.800,-10.407,-12.978,-0.981,-18.154,-6.391,-5.441,-7.076,-1.869,-6.288,-2.397,-5.610,7.973,-0.824,-12.434,9.022,2.144
2019.07.22 14:01:19.296,-14.430,-10.094,-6.220,-7.169,-11.052,1.478,-19.657,-8.668,-4.247,-5.504,-3.504,-10.216,-2.162,-7.457,5.945,-9.700,-9.287,11.117,0.529
2019.07.22 14:01:19.300,-19.201,-13.924,-9.690,-9.921,-13.760,-2.002,-18.081,-7.481,-1.825,-3.164,-2.403,-11.669,-4.762,-4.514,0.226,-15.671,-11.725,8.062,-4.124
2019.07.22 14:01:19.304,-23.890,-15.974,-16.769,-15.696,-18.202,-8.037,-15.096,-3.785,0.075,-1.028,-0.997,-8.893,-8.239,1.732,-5.819,-14.473,-16.790,3.199,-8.157
2019.07.22 14:01:19.308,-22.997,-14.520,-20.933,-19.358,-19.545,-11.220,-13.234,-0.548,0.436,0.502,-1.987,-3.653,-10.212,7.178,-8.518,-7.480,-19.525,0.901,-8.657
2019.07.22 14:01:19.312,-15.566,-10.467,-18.110,-18.193,-15.142,-8.827,-13.424,-0.017,-0.006,1.481,-5.581,0.400,-9.684,8.774,-6.783,-0.231,-17.407,2.780,-5.872
2019.07.22 14:01:19.316,-5.953,-6.466,-9.834,-13.941,-6.696,-2.854,-14.221,-1.903,0.557,2.123,-9.126,0.815,-7.518,6.988,-2.718,2.018,-12.316,6.561,-2.725
2019.07.22 14:01:19.320,-0.169,-4.761,-1.603,-10.822,1.179,2.086,-13.371,-3.971,3.205,2.568,-9.430,-1.767,-5.433,5.055,0.377,-1.916,-8.562,8.366,-2.048
2019.07.22 14:01:19.324,-1.053,-5.615,1.785,-11.624,4.620,2.818,-10.195,-4.314,6.999,2.829,-5.650,-4.394,-4.591,5.913,0.688,-8.730,-8.992,6.169,-4.115
2019.07.22 14:01:19.328,-6.313,-7.450,-0.131,-15.396,3.323,0.038,-6.501,-3.127,9.512,2.848,-0.150,-4.415,-4.955,9.639,-1.012,-13.512,-12.646,1.382,-6.600
2019.07.22 14:01:19.332,-10.791,-8.300,-3.701,-18.578,0.375,-2.734,-5.104,-2.391,8.852,2.562,3.429,-1.633,-5.723,13.566,-2.560,-13.375,-15.821,-2.642,-6.866
2019.07.22 14:01:19.336,-10.708,-7.196,-4.620,-18.256,-0.443,-2.409,-7.230,-3.862,5.501,1.948,3.183,1.735,-6.161,14.747,-2.554,-9.139,-15.349,-3.610,-4.391
2019.07.22 14:01:19.340,-6.272,-4.444,-1.397,-14.535,2.509,1.224,-11.147,-7.283,2.295,1.076,0.444,3.099,-5.999,12.489,-1.424,-4.117,-11.114,-2.078,-1.171
2019.07.22 14:01:19.344,-0.752,-0.887,3.965,-10.052,7.933,5.821,-13.327,-10.468,2.397,0.167,-1.466,1.704,-5.158,8.781,-0.584,-1.359,-5.759,-0.566,0.164
2019.07.22 14:01:19.348,2.697,2.890,8.217,-7.355,13.107,8.934,-11.256,-11.161,6.817,-0.404,-0.069,-0.828,-3.370,6.464,-0.655,-1.555,-2.171,-1.033,-1.259
2019.07.22 14:01:19.352,3.459,6.661,9.678,-6.704,16.069,10.127,-5.540,-8.976,13.479,-0.225,4.283,-1.933,-0.280,6.898,-0.586,-2.965,-1.173,-3.109,-3.838
2019.07.22 14:01:19.356,3.179,10.067,9.147,-6.239,16.648,10.891,0.463,-5.662,18.637,0.900,8.864,-0.198,3.944,9.133,1.411,-3.072,-1.389,-4.638,-5.039
2019.07.22 14:01:19.360,3.459,12.282,8.438,-4.158,15.800,12.679,3.187,-3.521,19.551,2.701,10.927,3.611,8.172,11.077,5.978,-0.509,-1.112,-3.880,-3.744
2019.07.22 14:01:19.364,3.996,12.383,8.289,-0.719,14.280,15.130,1.496,-3.411,16.357,4.403,9.835,7.275,10.676,11.366,11.551,4.094,-0.166,-1.232,-1.273
2019.07.22 14:01:19.368,2.967,10.129,7.726,1.832,12.052,16.240,-2.686,-4.158,11.733,5.017,7.246,8.813,10.230,10.238,15.232,8.661,0.022,1.115,-0.194
2019.07.22 14:01:19.372,-0.807,6.363,5.369,1.295,8.852,14.290,-6.111,-3.831,8.732,3.847,5.385,7.695,7.068,8.800,14.915,11.008,-1.900,1.224,-2.032
2019.07.22 14:01:19.376,-6.131,2.497,1.222,-2.425,5.074,9.665,-6.770,-1.709,8.533,0.927,5.085,4.750,2.841,7.660,10.871,10.012,-5.535,-0.779,-5.941
2019.07.22 14:01:19.380,-9.948,-0.534,-2.906,-7.133,1.894,4.797,-5.201,0.880,9.826,-2.931,5.282,1.114,-0.537,6.323,5.418,6.040,-8.785,-2.820,-9.497
2019.07.22 14:01:19.384,-9.776,-2.915,-4.819,-10.172,0.365,2.232,-3.634,1.631,10.115,-6.562,4.257,-2.678,-2.244,3.910,0.992,0.615,-9.646,-2.775,-10.835
2019.07.22 14:01:19.388,-5.937,-5.549,-3.848,-10.552,0.393,2.561,-3.935,-0.694,7.774,-9.081,1.355,-6.693,-2.992,0.375,-1.691,-4.352,-8.063,-0.417,-10.211
2019.07.22 14:01:19.392,-1.504,-8.915,-1.445,-9.474,0.664,4.089,-6.135,-5.038,3.212,-10.282,-2.388,-10.885,-4.163,-3.047,-3.807,-7.381,-6.061,2.384,-9.610
2019.07.22 14:01:19.396,0.067,-12.266,0.115,-8.904,-0.259,4.499,-8.663,-8.717,-1.620,-10.501,-5.165,-14.501,-6.397,-4.675,-6.857,-7.985,-5.946,3.352,-10.804
2019.07.22 14:01:19.400,-2.337,-13.988,-0.291,-9.624,-2.623,2.982,-9.854,-9.440,-4.781,-10.054,-5.926,-16.275,-8.877,-3.729,-10.880,-6.787,-8.195,1.834,-13.655
2019.07.22 14:01:19.404,-6.698,-12.925,-1.824,-10.605,-5.191,0.904,-9.309,-6.999,-5.658,-8.736,-5.136,-15.285,-9.989,-0.955,-14.107,-5.122,-10.977,-0.665,-16.170
2019.07.22 14:01:19.408,-9.632,-9.563,-2.722,-10.220,-6.306,0.449,-8.000,-3.268,-5.106,-5.901,-4.178,-11.731,-8.822,2.029,-14.457,-4.307,-11.761,-1.903,-16.253
2019.07.22 14:01:19.412,-9.170,-5.970,-2.143,-8.021,-5.395,2.523,-7.250,-0.604,-4.537,-1.165,-4.108,-6.947,-6.197,4.019,-11.552,-4.964,-9.574,-0.929,-13.589
2019.07.22 14:01:19.416,-6.227,-4.420,-1.014,-5.316,-3.544,5.831,-7.617,-0.038,-4.842,4.770,-4.923,-2.642,-4.260,4.951,-7.423,-6.814,-5.870,1.106,-9.990
2019.07.22 14:01:19.420,-3.668,-5.765,-1.042,-3.956,-2.574,7.952,-8.671,-0.694,-5.954,9.938,-5.904,0.016,-4.871,5.481,-5.150,-9.043,-3.215,2.073,-7.923
2019.07.22 14:01:19.424,-3.886,-8.847,-2.845,-4.469,-3.410,7.420,-9.671,-0.782,-7.195,11.980,-6.517,0.800,-8.055,5.961,-6.458,-10.955,-2.984,0.867,-8.509
2019.07.22 14:01:19.428,-6.970,-11.416,-5.020,-5.391,-5.176,4.945,-10.355,0.829,-7.907,9.657,-6.884,0.170,-11.814,5.928,-10.248,-12.370,-4.165,-1.566,-10.700
2019.07.22 14:01:19.432,-10.813,-11.768,-5.165,-4.513,-5.852,2.748,-11.070,3.784,-7.798,3.963,-7.392,-1.261,-13.503,4.666,-13.307,-13.450,-4.330,-3.078,-12.272
2019.07.22 14:01:19.436,-12.833,-9.810,-2.022,-0.973,-3.935,2.650,-12.211,6.719,-6.861,-2.097,-7.934,-3.010,-11.732,2.288,-12.676,-14.165,-1.896,-2.267,-11.697
2019.07.22 14:01:19.440,-11.706,-6.782,3.177,3.751,0.318,4.647,-13.644,8.477,-5.148,-5.142,-7.696,-4.634,-7.338,0.160,-7.829,-13.930,2.402,0.258,-9.281
2019.07.22 14:01:19.444,-7.830,-4.087,7.471,6.930,5.101,7.144,-14.758,8.944,-2.749,-3.501,-5.838,-5.556,-2.710,0.076,-0.980,-11.862,6.148,2.434,-6.681
2019.07.22 14:01:19.448,-2.534,-2.314,8.484,6.878,8.489,8.479,-15.094,8.889,0.033,1.674,-2.465,-5.188,-0.060,2.741,4.603,-7.563,7.413,2.594,-5.363
2019.07.22 14:01:19.452,2.918,-1.261,6.341,4.409,9.802,8.265,-14.895,9.105,2.566,7.096,1.103,-3.360,0.007,6.897,6.873,-1.803,6.470,0.941,-5.434
2019.07.22 14:01:19.456,7.572,-0.733,3.561,2.130,9.767,7.346,-14.963,9.717,4.080,9.403,3.169,-0.701,-1.397,9.947,6.100,3.506,5.508,-0.653,-5.830
2019.07.22 14:01:19.460,10.383,-1.153,3.015,2.172,9.482,6.588,-15.881,10.206,4.077,7.222,2.946,1.471,-2.597,9.683,4.109,6.186,6.587,-0.328,-5.566
2019.07.22 14:01:19.464,10.079,-3.284,5.700,4.367,9.245,5.802,-17.360,10.019,2.616,1.810,1.138,1.781,-2.738,5.761,2.506,4.967,9.710,2.160,-4.839
2019.07.22 14:01:19.468,5.870,-7.276,10.161,6.477,8.372,3.928,-18.351,9.098,0.232,-4.037,-0.733,-0.431,-2.324,-0.227,1.440,0.175,12.761,5.301,-4.940
2019.07.22 14:01:19.472,-1.431,-12.026,13.901,6.268,6.116,0.320,-17.909,7.876,-2.447,-7.929,-1.712,-4.745,-2.606,-6.013,-0.171,-6.495,13.383,7.240,-7.077
2019.07.22 14:01:19.476,-9.102,-15.648,15.417,3.535,2.728,-4.186,-16.045,6.834,-5.021,-9.209,-2.213,-9.918,-4.430,-10.124,-3.306,-12.920,11.103,7.395,-11.178
2019.07.22 14:01:19.480,-13.746,-16.852,15.069,0.272,-0.453,-7.590,-13.773,6.111,-7.340,-8.827,-3.488,-14.533,-7.505,-12.385,-7.667,-17.506,7.786,6.831,-15.728
2019.07.22 14:01:19.484,-13.463,-16.092,14.179,-1.162,-2.062,-8.314,-12.277,5.531,-9.263,-8.087,-6.195,-17.602,-10.598,-13.264,-11.649,-19.601,5.997,7.084,-18.790
2019.07.22 14:01:19.488,-9.280,-15.387,13.415,-0.189,-1.951,-6.664,-11.919,4.927,-10.503,-7.458,-9.381,-18.799,-12.368,-12.932,-13.447,-19.296,6.728,8.578,-19.323
2019.07.22 14:01:19.492,-4.552,-16.790,12.079,1.507,-1.432,-4.738,-11.982,4.371,-10.764,-6.428,-10.901,-18.361,-12.165,-11.074,-12.326,-17.017,8.548,10.119,-17.743
2019.07.22 14:01:19.496,-2.580,-20.632,9.004,1.620,-2.175,-4.726,-11.383,4.038,-10.082,-4.406,-9.043,-16.867,-10.252,-7.587,-9.073,-13.332,8.939,9.943,-15.352
2019.07.22 14:01:19.500,-4.236,-25.025,4.123,-0.502,-4.690,-6.985,-9.728,3.902,-8.995,-1.738,-4.027,-15.055,-7.461,-3.355,-5.363,-9.062,6.637,7.361,-13.251
2019.07.22 14:01:19.504,-7.484,-27.113,-0.881,-3.066,-7.767,-9.623,-7.769,3.632,-8.303,0.181,1.930,-13.632,-4.685,-0.092,-2.645,-5.365,2.860,3.491,-11.669
2019.07.22 14:01:19.508,-9.180,-25.205,-3.649,-3.320,-9.436,-10.051,-6.849,2.881,-8.520,-0.121,6.082,-13.017,-2.567,0.832,-1.400,-3.468,0.307,0.380,-10.160
2019.07.22 14:01:19.512,-7.695,-20.108,-3.092,-0.075,-8.649,-7.237,-7.818,1.707,-9.471,-2.929,7.007,-13.077,-1.437,-0.390,-1.183,-4.029,0.758,-0.717,-8.320
2019.07.22 14:01:19.516,-4.200,-14.606,-0.448,5.013,-6.209,-2.729,-10.327,0.671,-10.378,-6.903,5.365,-13.121,-1.329,-1.924,-1.217,-6.573,3.418,-0.370,-6.272
2019.07.22 14:01:19.520,-1.579,-11.446,1.591,8.632,-4.076,0.512,-13.085,0.446,-10.404,-9.876,3.054,-12.284,-1.939,-1.632,-0.953,-9.492,5.495,-0.388,-4.524
2019.07.22 14:01:19.524,-1.905,-11.374,1.073,8.566,-3.615,0.539,-14.790,1.258,-9.216,-10.287,1.578,-10.145,-2.633,1.213,-0.237,-10.779,4.581,-2.137,-3.434
2019.07.22 14:01:19.528,-4.622,-12.696,-1.551,5.693,-4.335,-1.911,-14.928,2.675,-7.143,-8.127,1.045,-7.132,-2.657,5.279,0.834,-9.122,0.810,-5.222,-2.878
2019.07.22 14:01:19.532,-6.940,-12.661,-3.725,3.451,-4.259,-3.926,-13.845,3.983,-4.857,-4.674,0.537,-4.315,-1.550,8.229,2.107,-4.663,-3.060,-7.709,-2.447
2019.07.22 14:01:19.536,-6.095,-9.539,-2.861,5.160,-1.679,-2.722,-12.172,4.804,-2.882,-1.367,-0.660,-2.672,0.500,8.630,3.422,1.068,-3.755,-7.693,-1.927
2019.07.22 14:01:19.540,-1.572,-3.830,1.534,11.370,3.222,2.133,-10.267,5.373,-1.361,1.198,-2.182,-2.344,2.711,7.137,4.618,6.029,-0.040,-4.865,-1.546
2019.07.22 14:01:19.544,4.559,2.239,7.436,19.407,8.312,8.397,-8.167,6.187,-0.192,3.338,-2.880,-2.503,4.210,5.932,5.624,8.820,6.366,-0.772,-1.724
2019.07.22 14:01:19.548,9.408,6.424,11.894,25.454,11.155,12.912,-5.999,7.356,0.712,5.494,-1.956,-1.991,4.650,6.908,6.591,9.392,12.204,2.411,-2.585
2019.07.22 14:01:19.552,11.606,8.005,13.298,27.414,10.979,13.992,-4.276,8.315,1.336,7.460,0.140,-0.253,4.440,10.147,7.885,8.917,15.146,3.519,-3.753
2019.07.22 14:01:19.556,12.226,8.039,12.442,26.211,9.316,12.489,-3.657,8.245,1.722,8.410,1.923,2.158,4.360,13.936,9.774,8.923,15.297,3.093,-4.665
2019.07.22 14:01:19.560,13.547,8.252,11.606,24.605,8.709,10.788,-4.345,6.853,2.098,7.718,2.004,3.943,4.837,16.255,12.021,10.264,14.578,2.662,-5.112
2019.07.22 14:01:19.564,16.750,9.539,12.514,24.629,10.554,10.668,-5.730,4.769,2.722,5.750,0.144,3.975,5.477,16.382,13.745,12.562,14.707,3.348,-5.476
2019.07.22 14:01:19.568,20.549,11.228,14.889,25.891,13.860,11.833,-6.741,3.102,3.479,3.757,-2.683,2.074,5.257,15.248,13.828,14.465,15.592,5.029,-6.381
2019.07.22 14:01:19.572,21.975,11.608,16.725,26.078,15.971,12.250,-6.716,2.477,3.651,2.814,-5.205,-0.991,3.277,14.301,11.672,14.545,15.483,6.677,-8.064
2019.07.22 14:01:19.576,18.725,9.236,15.906,23.129,14.644,9.883,-6.038,2.437,2.210,2.692,-6.871,-4.190,-0.511,13.999,7.718,12.267,12.641,7.430,-10.070
2019.07.22 14:01:19.580,11.164,4.018,11.784,17.160,9.783,4.341,-5.929,1.808,-1.421,1.750,-8.075,-7.008,-5.179,13.310,3.246,8.362,7.013,7.346,-11.588
2019.07.22 14:01:19.584,2.325,-2.683,5.511,10.536,3.429,-2.849,-7.508,-0.190,-6.724,-1.860,-9.469,-9.648,-9.407,10.685,-0.485,4.352,0.460,7.208,-12.151
2019.07.22 14:01:19.588,-4.155,-8.922,-0.956,6.103,-1.923,-9.421,-10.881,-3.099,-12.157,-8.545,-11.098,-12.556,-12.331,5.605,-3.120,1.487,-4.604,7.627,-12.069
2019.07.22 14:01:19.592,-6.586,-13.331,-6.189,5.093,-5.244,-13.939,-15.050,-5.472,-16.052,-16.546,-12.239,-15.751,-14.004,-0.680,-5.383,-0.146,-6.972,8.356,-12.156
2019.07.22 14:01:19.596,-6.276,-15.773,-9.902,6.388,-7.540,-16.507,-18.715,-6.130,-17.695,-22.871,-12.081,-18.606,-15.136,-5.914,-8.348,-1.683,-7.354,8.451,-12.981
2019.07.22 14:01:19.600,-6.315,-17.114,-12.561,7.596,-10.679,-18.217,-21.255,-5.359,-17.756,-25.279,-10.581,-20.270,-16.359,-8.414,-12.342,-4.572,-7.544,7.104,-14.306
2019.07.22 14:01:19.604,-9.041,-18.358,-14.587,6.944,-15.510,-19.975,-23.044,-4.919,-17.661,-23.829,-8.638,-20.358,-17.610,-8.150,-16.390,-9.280,-8.854,4.387,-15.236
2019.07.22 14:01:19.608,-14.154,-19.802,-15.948,4.440,-20.887,-21.716,-24.845,-6.690,-18.389,-20.755,-7.391,-19.246,-18.133,-6.434,-18.697,-14.585,-11.130,1.220,-14.968
2019.07.22 14:01:19.612,-18.898,-20.789,-16.396,1.553,-24.399,-22.571,-26.881,-10.995,-19.661,-18.733,-7.273,-17.720,-17.079,-4.628,-17.877,-18.079,-13.074,-1.345,-13.477
2019.07.22 14:01:19.616,-20.117,-20.188,-15.940,-0.117,-24.198,-21.664,-28.490,-16.038,-20.225,-18.888,-7.726,-16.281,-14.240,-3.058,-13.999,-17.682,-13.463,-2.888,-11.527
2019.07.22 14:01:19.620,-16.637,-17.278,-14.993,0.021,-20.449,-18.837,-28.686,-19.073,-18.989,-20.080,-7.827,-14.779,-10.348,-1.107,-8.658,-13.172,-12.175,-3.763,-10.005
2019.07.22 14:01:19.624,-10.174,-12.402,-14.049,1.424,-15.279,-14.738,-27.145,-18.476,-16.078,-20.000,-7.232,-12.699,-6.716,1.709,-3.975,-6.609,-10.221,-4.588,-9.169
2019.07.22 14:01:19.628,-4.173,-6.949,-13.277,3.158,-11.330,-10.371,-24.659,-15.071,-12.881,-17.193,-6.495,-9.878,-4.479,4.761,-1.299,-1.255,-8.893,-5.621,-8.493
2019.07.22 14:01:19.632,-1.458,-2.625,-12.482,4.707,-10.066,-6.540,-22.605,-11.621,-11.026,-12.388,-6.444,-6.950,-3.972,6.409,-0.512,0.370,-8.795,-6.598,-7.241
2019.07.22 14:01:19.636,-2.416,-0.471,-11.477,6.167,-11.082,-3.593,-21.860,-10.811,-11.127,-8.123,-7.169,-5.081,-4.630,5.185,-0.420,-2.001,-9.518,-7.112,-5.235
2019.07.22 14:01:19.640,-4.959,-0.268,-10.435,7.827,-12.769,-1.499,-22.100,-13.309,-12.339,-6.972,-7.661,-5.127,-5.456,1.035,0.166,-6.320,-10.080,-7.080,-3.133
2019.07.22 14:01:19.644,-6.175,-0.741,-9.813,9.671,-13.641,-0.021,-22.159,-17.417,-13.105,-9.736,-6.551,-6.914,-5.684,-4.458,1.520,-9.624,-9.666,-6.800,-1.946
2019.07.22 14:01:19.648,-4.409,-0.447,-9.860,11.310,-13.257,1.175,-21.112,-20.513,-12.443,-14.919,-3.392,-9.261,-5.199,-9.121,2.910,-9.909,-8.076,-6.544,-2.235
2019.07.22 14:01:19.652,-0.283,1.263,-10.191,12.331,-12.136,2.475,-19.141,-21.094,-10.683,-19.777,0.660,-10.777,-4.447,-11.633,3.325,-7.223,-5.665,-6.142,-3.685
2019.07.22 14:01:19.656,3.957,3.859,-9.905,12.668,-10.963,4.187,-17.370,-19.761,-9.033,-22.076,3.473,-10.823,-3.964,-12.227,2.383,-3.344,-2.995,-5.006,-5.414
2019.07.22 14:01:19.660,6.179,6.120,-8.209,12.625,-9.862,6.339,-16.797,-18.460,-8.382,-21.301,3.466,-9.888,-3.873,-12.148,0.698,-0.442,-0.522,-2.652,-6.712
2019.07.22 14:01:19.664,5.853,7.094,-5.029,12.581,-8.346,8.566,-17.276,-18.720,-8.412,-18.608,0.816,-9.110,-3.724,-12.441,-0.530,0.262,1.518,0.757,-7.540
2019.07.22 14:01:19.668,4.248,6.805,-1.066,12.687,-5.889,10.234,-17.489,-20.397,-7.842,-15.809,-2.659,-9.335,-2.814,-13.123,-0.381,-1.015,3.096,4.386,-8.376
2019.07.22 14:01:19.672,3.275,6.143,2.714,12.832,-2.573,10.777,-16.012,-21.923,-5.636,-14.268,-4.861,-10.474,-0.773,-13.384,1.143,-3.105,4.338,7.268,-9.589
2019.07.22 14:01:19.676,3.922,6.011,5.671,12.814,0.739,9.964,-12.612,-21.723,-2.171,-14.431,-4.898,-11.614,1.992,-12.533,3.139,-4.798,5.426,8.966,-10.957
2019.07.22 14:01:19.680,5.462,6.419,7.606,12.457,2.810,7.900,-8.668,-19.556,0.690,-16.073,-3.531,-11.722,4.356,-10.795,4.442,-5.474,6.381,9.754,-11.773
2019.07.22 14:01:19.684,5.978,6.270,8.366,11.560,2.690,4.780,-6.318,-16.643,0.767,-18.781,-2.287,-10.358,5.064,-9.257,4.403,-5.170,6.839,10.189,-11.429
2019.07.22 14:01:19.688,3.807,4.108,7.470,9.811,0.191,0.716,-6.987,-14.575,-2.860,-22.192,-2.097,-7.859,3.518,-9.052,3.290,-4.281,6.054,10.465,-9.925
2019.07.22 14:01:19.692,-1.175,-0.697,4.306,6.948,-4.048,-4.126,-10.435,-13.989,-9.076,-25.857,-2.619,-4.952,0.247,-10.452,2.063,-3.257,3.325,10.191,-7.857
2019.07.22 14:01:19.696,-7.317,-7.183,-1.107,3.177,-8.822,-9.150,-15.014,-14.126,-15.314,-29.023,-2.731,-2.203,-3.294,-12.575,1.742,-2.465,-1.316,8.790,-5.896
2019.07.22 14:01:19.700,-12.124,-13.076,-7.469,-0.515,-12.742,-13.110,-18.830,-13.566,-19.055,-30.669,-1.638,0.253,-5.479,-13.840,2.781,-2.107,-6.664,6.161,-4.278
2019.07.22 14:01:19.704,-13.655,-15.943,-12.412,-2.565,-14.609,-14.431,-20.854,-11.436,-19.136,-29.866,0.463,2.540,-5.374,-12.796,4.862,-2.069,-10.638,2.975,-2.748
2019.07.22 14:01:19.708,-11.451,-14.482,-13.682,-1.638,-13.762,-12.004,-21.180,-8.063,-16.033,-26.224,2.717,4.687,-3.125,-8.777,7.190,-1.787,-11.294,0.297,-0.987
2019.07.22 14:01:19.712,-6.493,-9.116,-10.530,2.454,-10.321,-5.955,-20.446,-4.620,-11.129,-20.144,4.531,6.445,0.322,-2.162,9.070,-0.396,-7.971,-1.152,0.935
2019.07.22 14:01:19.716,-0.417,-1.614,-4.247,8.453,-5.239,2.195,-19.089,-2.176,-5.707,-12.724,6.144,7.425,3.943,5.713,10.362,2.748,-1.748,-1.474,2.524
2019.07.22 14:01:19.720,5.362,5.895,2.637,14.277,0.019,10.199,-17.119,-1.006,-0.433,-5.411,8.293,7.398,7.211,12.872,11.509,7.434,5.160,-1.393,3.299
2019.07.22 14:01:19.724,10.064,11.812,7.933,18.218,4.095,16.182,-14.478,-0.647,4.464,0.438,11.298,6.482,10.163,17.261,13.135,12.406,10.670,-1.595,3.263
2019.07.22 14:01:19.728,13.456,15.446,11.005,19.882,6.380,19.460,-11.464,-0.490,8.756,3.949,14.503,5.087,12.992,17.546,15.496,15.922,13.898,-2.189,2.947
2019.07.22 14:01:19.732,15.612,16.869,12.753,20.209,7.275,20.620,-8.695,-0.262,12.067,5.024,16.660,3.695,15.605,13.878,18.185,16.800,15.340,-2.734,2.952
2019.07.22 14:01:19.736,16.828,16.641,14.529,20.640,7.870,20.920,-6.605,0.004,14.176,4.411,16.982,2.669,17.572,8.100,20.320,15.208,16.173,-2.744,3.389
2019.07.22 14:01:19.740,17.674,15.623,16.952,22.099,9.216,21.505,-4.994,0.353,15.374,3.476,15.888,2.170,18.519,3.000,21.111,12.529,17.331,-2.154,3.750
2019.07.22 14:01:19.744,18.896,14.877,19.555,24.517,11.661,22.950,-3.154,1.136,16.432,3.640,14.719,2.158,18.582,0.822,20.396,10.332,19.041,-1.307,3.329
2019.07.22 14:01:19.748,20.982,15.415,21.426,27.126,14.677,25.245,-0.540,2.749,18.076,5.691,14.590,2.381,18.440,1.937,18.751,9.202,21.015,-0.528,1.839
2019.07.22 14:01:19.752,23.638,17.745,22.133,29.104,17.276,28.001,2.604,5.134,20.391,9.350,15.385,2.384,18.835,4.654,17.077,8.362,22.901,0.252,-0.321
2019.07.22 14:01:19.756,25.669,21.429,22.065,29.999,18.676,30.616,5.283,7.554,22.690,13.383,15.805,1.657,19.922,6.438,15.950,6.409,24.488,1.426,-2.368
2019.07.22 14:01:19.760,25.581,25.085,21.921,29.687,18.744,32.322,6.508,8.978,24.003,16.233,14.480,-0.070,21.038,5.725,15.227,2.583,25.514,3.230,-3.725
2019.07.22 14:01:19.764,22.612,26.964,21.887,28.104,17.930,32.308,6.135,8.823,23.804,16.796,11.209,-2.522,21.117,3.003,14.196,-2.434,25.447,5.360,-4.364
2019.07.22 14:01:19.768,17.443,25.872,21.291,25.186,16.794,30.036,5.056,7.434,22.353,14.886,7.250,-4.847,19.494,0.329,12.180,-6.880,23.648,7.108,-4.656
2019.07.22 14:01:19.772,11.918,21.825,19.085,21.109,15.521,25.625,4.500,5.875,20.392,11.158,4.371,-5.981,16.431,-0.332,9.111,-9.138,19.934,7.946,-4.905
2019.07.22 14:01:19.776,7.832,16.011,14.732,16.537,13.776,19.973,5.016,5.157,18.455,6.674,3.465,-5.249,12.958,1.373,5.660,-8.850,15.042,8.050,-5.047
2019.07.22 14:01:19.780,5.609,10.065,8.732,12.472,10.990,14.405,5.985,5.539,16.424,2.453,3.903,-2.795,10.137,4.024,2.823,-7.053,10.444,8.212,-4.787
2019.07.22 14:01:19.784,3.931,5.156,2.333,9.662,6.842,10.001,6.086,6.444,13.714,-0.741,4.152,0.488,8.350,5.700,1.308,-5.282,7.463,9.152,-3.979
2019.07.22 14:01:19.788,0.698,1.493,-3.281,8.030,1.586,7.050,4.351,7.017,9.929,-2.437,3.131,3.493,7.187,5.584,1.160,-4.427,6.319,10.808,-2.860
2019.07.22 14:01:19.792,-5.290,-1.473,-7.648,6.663,-3.991,5.050,0.936,6.836,5.410,-2.482,1.117,5.495,5.954,4.546,1.863,-4.295,5.912,12.236,-1.861
2019.07.22 14:01:19.796,-13.150,-4.364,-11.014,4.525,-8.915,3.259,-2.985,6.184,1.186,-1.151,-0.564,6.397,4.351,4.256,2.746,-4.176,4.635,12.294,-1.195
2019.07.22 14:01:19.800,-20.160,-7.230,-13.755,1.370,-12.405,1.384,-6.080,5.744,-1.644,0.860,-0.767,6.489,2.693,5.637,3.334,-3.807,1.687,10.556,-0.660
2019.07.22 14:01:19.804,-23.322,-9.373,-15.802,-1.876,-14.051,-0.103,-7.721,6.033,-2.588,2.703,0.391,6.028,1.533,8.030,3.403,-3.808,-2.142,7.720,0.120
2019.07.22 14:01:19.808,-21.165,-9.729,-16.570,-3.659,-13.730,-0.260,-8.183,7.066,-1.968,3.888,1.541,5.045,1.064,9.795,2.839,-5.126,-4.867,5.135,1.225
2019.07.22 14:01:19.812,-14.563,-7.527,-15.397,-2.905,-11.422,1.662,-8.098,8.453,-0.526,4.619,1.162,3.535,0.890,9.789,1.563,-7.929,-4.646,3.831,2.220
2019.07.22 14:01:19.816,-6.076,-2.824,-12.098,0.146,-7.159,5.644,-7.747,9.726,1.184,5.607,-1.157,1.797,0.399,8.407,-0.339,-10.963,-1.081,3.847,2.479
2019.07.22 14:01:19.820,1.624,3.392,-7.174,4.041,-1.190,10.816,-6.816,10.552,3.082,7.397,-4.336,0.504,-0.597,7.252,-2.403,-12.034,4.497,4.359,1.807
2019.07.22 14:01:19.824,7.106,9.571,-1.586,7.067,5.762,15.861,-4.808,10.715,5.325,9.731,-6.599,0.342,-1.567,7.723,-3.814,-9.402,9.930,4.464,0.777
2019.07.22 14:01:19.828,10.504,14.278,3.671,8.362,12.458,19.650,-1.678,10.031,7.837,11.591,-6.765,1.482,-1.621,9.795,-3.784,-3.088,13.615,3.918,0.412
2019.07.22 14:01:19.832,12.812,16.865,7.883,8.347,17.490,21.736,1.921,8.437,10.096,12.016,-5.011,3.381,-0.244,12.062,-2.074,4.911,15.362,3.245,1.400
2019.07.22 14:01:19.836,14.896,17.777,10.740,8.245,19.936,22.486,4.988,6.237,11.454,11.071,-2.556,5.148,2.269,13.034,0.793,11.704,16.154,3.181,3.499
2019.07.22 14:01:19.840,16.948,18.288,12.338,9.101,19.937,22.827,6.833,4.214,11.739,10.068,-0.627,6.225,5.055,12.518,3.859,15.163,17.147,4.004,5.674
2019.07.22 14:01:19.844,18.628,19.726,13.138,11.046,18.729,23.721,7.469,3.334,11.590,10.643,0.401,6.796,7.419,11.834,6.387,15.006,18.724,5.322,6.879
2019.07.22 14:01:19.848,19.540,22.561,13.801,13.284,17.989,25.591,7.449,4.145,12.161,13.332,1.053,7.527,9.364,12.621,8.299,12.645,20.280,6.446,6.825
2019.07.22 14:01:19.852,19.533,25.946,14.810,14.676,18.795,27.988,7.357,6.323,14.313,16.831,2.063,8.825,11.406,15.241,10.008,10.008,20.793,6.964,6.073
2019.07.22 14:01:19.856,18.660,28.082,16.023,14.455,20.875,29.729,7.413,8.796,17.896,18.760,3.617,10.252,13.823,18.198,11.758,8.238,19.621,6.988,5.383
2019.07.22 14:01:19.860,16.981,27.303,16.519,12.603,22.720,29.551,7.500,10.457,21.671,17.494,5.176,10.684,16.046,19.139,13.091,7.145,16.940,6.929,4.923
2019.07.22 14:01:19.864,14.551,23.234,15.077,9.799,22.580,26.974,7.488,10.921,24.014,13.618,5.943,9.170,16.867,16.684,12.997,5.667,13.591,7.080,4.086
2019.07.22 14:01:19.868,11.636,17.218,11.106,7.083,19.751,22.800,7.471,10.719,23.934,9.705,5.518,5.827,15.409,11.587,10.735,2.895,10.582,7.444,2.116
2019.07.22 14:01:19.872,8.894,11.618,5.394,5.478,15.238,18.776,7.663,10.742,21.699,8.373,4.173,1.994,12.069,6.271,6.671,-1.121,8.632,7.936,-1.009
2019.07.22 14:01:19.876,7.186,8.376,-0.042,5.637,11.259,16.498,8.056,11.405,18.632,10.091,2.562,-0.555,8.534,3.099,2.334,-5.297,7.997,8.661,-4.267
2019.07.22 14:01:19.880,7.035,7.764,-3.103,7.523,9.826,16.215,8.200,12.249,16.207,12.567,1.168,-0.798,6.678,2.745,-0.508,-8.171,8.497,9.912,-6.208
2019.07.22 14:01:19.884,8.084,8.181,-3.044,10.248,11.331,16.444,7.374,12.337,15.064,12.392,-0.018,0.874,7.107,3.922,-1.140,-8.814,9.606,11.787,-6.032
2019.07.22 14:01:19.888,9.034,7.181,-1.089,12.233,14.148,14.829,5.048,11.112,14.618,7.764,-1.389,3.048,8.538,4.552,-0.522,-7.428,10.537,13.801,-4.218
2019.07.22 14:01:19.892,8.236,3.032,0.345,11.828,15.614,9.779,1.302,8.967,13.509,0.137,-3.308,4.400,8.624,3.377,-0.636,-5.286,10.422,14.923,-2.150
2019.07.22 14:01:19.896,4.646,-4.182,-0.637,8.193,13.791,1.771,-3.117,7.008,10.621,-6.636,-5.773,4.646,5.704,0.705,-2.958,-4.046,8.648,14.162,-1.029
2019.07.22 14:01:19.900,-1.449,-12.595,-3.991,1.938,8.864,-6.676,-7.118,6.196,5.988,-9.084,-8.368,4.585,0.173,-2.139,-7.188,-4.815,5.245,11.295,-0.985
2019.07.22 14:01:19.904,-8.359,-19.576,-7.693,-4.954,3.212,-12.403,-9.716,6.614,1.008,-6.664,-10.477,5.252,-5.598,-4.011,-11.260,-7.452,1.045,7.150,-1.126
2019.07.22 14:01:19.908,-13.642,-23.000,-9.115,-9.993,0.092,-13.458,-10.333,7.487,-2.209,-2.008,-11.567,6.928,-8.787,-4.701,-12.696,-10.508,-2.562,3.160,-0.455
2019.07.22 14:01:19.912,-15.124,-22.019,-6.777,-11.406,1.786,-10.092,-8.883,7.927,-1.983,1.321,-11.342,8.863,-7.959,-4.659,-10.344,-11.899,-4.206,0.501,1.156
2019.07.22 14:01:19.916,-11.791,-17.088,-1.201,-8.966,8.365,-4.289,-5.720,7.755,1.958,1.744,-9.799,9.911,-3.885,-4.123,-5.195,-9.996,-3.143,-0.546,2.791
2019.07.22 14:01:19.920,-4.175,-9.493,5.696,-3.961,17.795,1.712,-1.570,7.661,8.268,0.865,-7.199,9.531,1.219,-2.590,0.310,-4.572,0.481,-0.554,3.241
2019.07.22 14:01:19.924,5.891,-0.846,12.050,1.641,27.189,6.731,2.616,8.574,14.664,1.973,-4.012,8.281,5.329,0.793,3.946,2.960,5.790,-0.333,2.024
2019.07.22 14:01:19.928,16.020,7.278,17.160,6.271,34.332,10.902,5.938,10.803,19.129,7.119,-0.783,7.383,7.876,6.240,5.104,10.196,11.638,-0.283,-0.209
2019.07.22 14:01:19.932,24.196,13.634,21.486,9.405,38.546,14.884,7.954,13.714,20.946,15.232,2.083,7.744,9.731,12.673,4.931,14.961,17.035,-0.217,-2.217
2019.07.22 14:01:19.936,29.484,17.636,25.726,11.506,40.517,18.883,8.929,16.219,20.947,22.841,4.513,9.246,12.112,18.113,5.238,16.391,21.356,0.273,-3.151
2019.07.22 14:01:19.940,32.158,19.596,29.889,13.395,41.409,22.355,9.685,17.637,20.862,26.775,6.773,10.901,15.436,20.905,7.115,15.253,24.313,1.296,-3.133
2019.07.22 14:01:19.944,33.182,20.573,33.141,15.546,41.961,24.533,11.015,18.152,22.154,26.562,9.244,11.689,19.049,20.829,10.284,13.329,25.809,2.469,-2.958
2019.07.22 14:01:19.948,33.332,21.713,34.438,17.708,42.117,25.162,13.039,18.474,25.092,24.514,12.097,11.339,21.945,19.170,13.577,12.268,25.814,3.173,-3.269
2019.07.22 14:01:19.952,32.560,23.406,33.289,19.020,41.292,24.688,14.997,19.029,28.598,23.475,15.113,10.385,23.730,17.646,15.965,12.608,24.322,2.998,-3.977
2019.07.22 14:01:19.956,30.079,24.899,29.989,18.521,38.947,23.731,15.721,19.435,30.957,24.231,17.801,9.496,24.923,17.020,17.239,13.541,21.380,1.996,-4.440
2019.07.22 14:01:19.960,25.186,24.764,25.258,15.768,35.051,22.407,14.496,18.771,30.890,24.809,19.707,8.712,26.344,16.500,17.837,13.488,17.199,0.591,-4.205
2019.07.22 14:01:19.964,18.229,22.008,19.740,11.242,30.156,20.225,11.653,16.418,28.298,22.302,20.655,7.331,28.153,14.423,18.112,11.101,12.287,-0.705,-3.581
2019.07.22 14:01:19.968,10.915,16.978,13.899,6.312,25.130,16.707,8.400,12.726,24.235,15.609,20.705,4.581,29.434,9.704,17.781,6.097,7.496,-1.478,-3.501
2019.07.22 14:01:19.972,5.555,11.305,8.275,2.665,20.741,12.126,5.978,8.888,20.170,6.708,19.907,0.519,28.748,2.937,16.083,-0.504,3.856,-1.435,-4.760
2019.07.22 14:01:19.976,3.658,6.820,3.658,1.429,17.340,7.587,4.747,6.089,17.084,-0.714,18.104,-3.665,25.216,-3.723,12.511,-6.820,2.147,-0.389,-7.298
2019.07.22 14:01:19.980,4.853,4.228,0.782,2.457,14.757,4.208,3.912,4.641,14.966,-4.139,15.018,-6.289,19.265,-7.849,7.447,-10.977,2.423,1.614,-10.172
2019.07.22 14:01:19.984,6.995,2.612,-0.287,4.258,12.454,2.090,2.108,3.817,12.993,-4.185,10.586,-6.334,12.424,-8.323,2.106,-11.991,3.815,4.093,-12.216
2019.07.22 14:01:19.988,7.488,0.212,-0.459,4.781,9.839,0.041,-1.588,2.532,10.191,-3.972,5.243,-4.212,6.359,-6.100,-2.176,-10.244,4.897,6.105,-12.844
2019.07.22 14:01:19.992,4.953,-4.065,-1.137,2.661,6.603,-3.527,-6.922,0.277,6.124,-6.408,-0.113,-1.521,1.910,-3.651,-4.761,-7.332,4.496,6.613,-12.309
2019.07.22 14:01:19.996,0.078,-9.578,-3.164,-1.826,2.925,-9.137,-12.512,-2.468,1.203,-11.667,-4.506,0.054,-1.113,-3.455,-5.967,-5.272,2.478,5.095,-11.304
2019.07.22 14:01:20.000,-4.898,-14.190,-6.027,-6.815,-0.545,-15.434,-16.578,-4.648,-3.480,-16.995,-7.329,-0.126,-3.326,-6.512,-6.585,-5.453,-0.085,1.978,-10.328
2019.07.22 14:01:20.004,-7.628,-15.643,-8.057,-9.924,-2.926,-19.773,-17.816,-5.482,-6.625,-18.978,-8.515,-1.332,-4.934,-11.777,-7.098,-7.838,-1.557,-1.524,-9.418
2019.07.22 14:01:20.008,-6.972,-13.028,-7.579,-9.707,-3.441,-19.875,-15.901,-4.997,-7.224,-16.354,-8.349,-2.157,-5.405,-16.793,-7.239,-10.926,-0.800,-4.125,-8.442
2019.07.22 14:01:20.012,-3.322,-7.261,-4.126,-6.486,-1.671,-15.319,-11.436,-3.851,-4.902,-11.003,-7.127,-1.640,-3.919,-19.073,-6.242,-12.560,2.076,-5.243,-7.566
2019.07.22 14:01:20.016,2.085,-0.302,1.254,-2.024,2.344,-7.756,-5.553,-2.677,-0.023,-6.314,-4.988,0.052,-0.170,-17.397,-3.540,-11.157,5.827,-5.261,-7.353
2019.07.22 14:01:20.020,8.129,6.178,6.850,1.676,8.151,0.255,0.525,-1.575,6.405,-4.335,-2.022,1.860,5.177,-12.327,0.671,-6.630,8.959,-5.080,-8.320
2019.07.22 14:01:20.024,14.257,11.594,11.544,3.567,14.982,6.818,5.800,-0.201,13.021,-4.158,1.492,2.735,10.763,-5.754,5.448,-0.436,10.690,-5.353,-10.347
2019.07.22 14:01:20.028,20.226,16.212,15.398,3.900,21.859,11.482,9.692,1.683,18.547,-2.861,5.037,2.438,15.333,0.151,9.664,5.261,11.286,-6.029,-12.547
2019.07.22 14:01:20.032,25.601,20.279,19.117,3.634,27.730,14.792,12.149,3.772,22.226,1.787,8.081,1.640,18.425,3.944,12.651,8.721,11.559,-6.554,-13.819
2019.07.22 14:01:20.036,29.606,23.405,22.944,3.482,31.685,17.224,13.591,5.339,24.053,9.162,10.382,1.298,20.439,5.361,14.455,9.353,12.017,-6.507,-13.678
2019.07.22 14:01:20.040,31.523,24.781,26.070,3.428,33.230,18.545,14.612,5.826,24.642,15.987,12.076,1.863,22.099,5.091,15.565,7.674,12.403,-6.058,-12.673
2019.07.22 14:01:20.044,31.218,23.971,27.155,2.993,32.456,18.138,15.535,5.362,24.746,18.740,13.423,2.974,23.766,4.167,16.394,4.752,11.996,-5.842,-11.986
2019.07.22 14:01:20.048,29.244,21.480,25.522,1.897,29.957,15.872,16.091,4.713,24.727,16.304,14.437,3.836,25.162,3.420,16.948,1.673,10.394,-6.353,-12.517
2019.07.22 14:01:20.052,26.413,18.502,21.917,0.445,26.493,12.584,15.553,4.677,24.328,10.741,14.747,3.927,25.639,3.278,16.890,-0.630,8.042,-7.404,-14.201
2019.07.22 14:01:20.056,23.209,16.028,18.090,-0.697,22.602,9.638,13.292,5.446,22.912,5.642,13.867,3.427,24.717,3.884,15.890,-1.353,6.050,-8.165,-16.110
2019.07.22 14:01:20.060,19.631,14.081,15.469,-1.089,18.437,7.896,9.390,6.481,20.013,3.438,11.637,3.010,22.422,5.241,13.933,-0.001,5.396,-7.750,-17.260
2019.07.22 14:01:20.064,15.571,11.775,14.096,-0.888,13.944,7.011,4.774,7.002,15.777,3.802,8.438,3.178,19.184,7.152,11.323,3.111,6.178,-5.868,-17.430
2019.07.22 14:01:20.068,11.308,8.164,12.733,-0.684,9.213,5.694,0.692,6.647,10.946,4.262,4.939,3.690,15.420,8.992,8.406,6.423,7.509,-3.013,-17.329
2019.07.22 14:01:20.072,7.551,3.161,10.082,-1.010,4.662,2.741,-2.131,5.693,6.397,2.335,1.572,3.568,11.202,9.640,5.266,7.454,8.111,-0.072,-17.993
2019.07.22 14:01:20.076,4.881,-2.271,6.034,-2.029,0.845,-2.034,-3.980,4.685,2.579,-2.583,-1.795,1.723,6.287,7.838,1.641,4.073,7.130,2.263,-19.919
2019.07.22 14:01:20.080,3.122,-6.784,1.841,-3.679,-1.968,-7.685,-5.860,3.818,-0.703,-8.963,-5.659,-2.241,0.475,2.929,-2.838,-3.901,4.547,3.772,-22.645
2019.07.22 14:01:20.084,1.322,-9.592,-0.953,-6.020,-4.056,-12.847,-8.609,2.692,-3.960,-14.445,-10.269,-7.594,-5.976,-4.469,-8.243,-13.987,1.001,4.515,-25.054
2019.07.22 14:01:20.088,-1.464,-10.865,-1.842,-9.293,-6.030,-16.568,-12.128,0.703,-7.406,-17.454,-15.138,-12.756,-12.231,-12.423,-14.062,-22.048,-2.695,4.466,-26.126
2019.07.22 14:01:20.092,-5.148,-11.270,-1.748,-13.472,-8.234,-18.567,-15.347,-2.248,-10.533,-17.861,-19.120,-16.092,-17.119,-18.475,-19.231,-24.624,-5.876,3.427,-25.532
2019.07.22 14:01:20.096,-8.280,-11.140,-2.091,-17.669,-10.225,-18.855,-16.977,-5.378,-12.235,-16.429,-21.069,-16.747,-19.609,-20.867,-22.516,-21.130,-7.984,1.341,-23.683
2019.07.22 14:01:20.100,-8.831,-10.054,-3.349,-20.105,-10.828,-17.266,-16.447,-7.361,-11.423,-13.825,-20.569,-15.014,-19.215,-19.438,-23.043,-14.292,-8.404,-1.308,-21.334
2019.07.22 14:01:20.104,-5.599,-7.226,-4.422,-18.954,-8.853,-13.508,-14.256,-7.178,-7.711,-10.171,-18.179,-12.054,-16.130,-15.573,-20.706,-8.389,-6.542,-3.494,-19.124
2019.07.22 14:01:20.108,0.860,-2.364,-3.399,-13.603,-3.979,-7.706,-11.479,-4.817,-1.689,-5.395,-14.989,-9.206,-11.082,-11.244,-16.210,-6.453,-2.227,-4.191,-17.392
2019.07.22 14:01:20.112,8.535,3.813,0.867,-5.367,2.852,-0.856,-8.873,-1.264,5.378,0.162,-11.877,-7.304,-5.030,-7.797,-10.734,-8.405,3.892,-3.102,-16.258
2019.07.22 14:01:20.116,15.288,9.882,7.740,3.048,9.889,5.429,-6.334,2.202,12.187,5.625,-9.063,-6.396,1.101,-5.327,-5.394,-11.438,10.405,-0.946,-15.750
2019.07.22 14:01:20.120,20.159,14.630,15.185,9.074,15.566,9.821,-3.141,4.846,17.921,10.121,-6.277,-5.954,6.574,-3.009,-0.836,-12.298,15.754,0.977,-15.812
2019.07.22 14:01:20.124,23.636,17.788,21.212,11.726,19.298,12.109,1.250,6.807,22.352,13.405,-3.311,-5.364,10.878,-0.042,2.822,-9.688,19.021,1.671,-16.244
2019.07.22 14:01:20.128,26.775,19.981,25.130,11.905,21.523,13.203,6.566,8.719,25.551,15.925,-0.435,-4.354,13.719,3.560,5.711,-5.008,20.294,1.075,-16.741
2019.07.22 14:01:20.132,29.986,21.953,27.570,11.363,23.012,14.232,11.765,11.014,27.532,18.210,1.717,-3.113,15.018,6.931,7.834,-0.998,20.350,-0.015,-17.077
2019.07.22 14:01:20.136,32.559,23.778,29.376,11.243,24.091,15.508,15.687,13.532,28.140,20.182,2.668,-2.049,14.934,9.016,8.951,0.505,19.935,-0.663,-17.264
2019.07.22 14:01:20.140,33.274,24.752,30.470,11.369,24.420,16.285,17.743,15.713,27.249,21.095,2.533,-1.422,13.856,9.381,8.833,-0.121,19.286,-0.499,-17.501
2019.07.22 14:01:20.144,31.496,24.046,29.798,10.825,23.500,15.551,18.085,17.174,25.057,20.231,1.973,-1.117,12.332,8.509,7.692,-0.892,18.272,0.143,-17.883
2019.07.22 14:01:20.148,27.767,21.522,26.435,9.204,21.392,13.144,17.209,18.102,22.171,17.717,1.681,-0.712,10.901,7.409,6.377,-0.090,16.964,0.715,-18.172
2019.07.22 14:01:20.152,23.406,17.962,20.815,7.339,18.957,10.131,15.431,19.119,19.367,14.658,1.841,0.193,9.874,6.914,6.030,2.209,16.005,1.099,-17.896
2019.07.22 14:01:20.156,19.534,14.508,14.876,6.790,17.320,8.027,12.752,20.711,17.160,12.367,1.999,1.659,9.179,7.214,7.333,4.227,16.335,1.782,-16.790
2019.07.22 14:01:20.160,16.434,11.796,10.843,8.475,16.977,7.475,9.170,22.720,15.502,11.328,1.432,3.313,8.350,7.942,9.830,4.039,18.392,3.411,-15.209
2019.07.22 14:01:20.164,13.749,9.558,9.617,11.646,17.297,7.591,5.084,24.337,13.832,10.851,-0.334,4.575,6.732,8.618,11.913,1.259,21.474,6.119,-14.078
2019.07.22 14:01:20.168,11.226,7.036,10.124,14.156,16.906,6.647,1.304,24.593,11.469,9.771,-3.264,5.015,3.814,9.012,11.614,-2.560,23.894,9.224,-14.292
2019.07.22 14:01:20.172,9.200,3.854,10.253,13.909,14.705,3.607,-1.379,22.995,8.105,7.638,-6.962,4.602,-0.476,9.129,7.794,-5.112,23.961,11.578,-15.996
2019.07.22 14:01:20.176,8.325,0.570,8.628,10.389,10.758,-0.769,-2.702,19.822,4.084,5.298,-10.987,3.642,-5.641,8.924,0.958,-5.099,21.121,12.300,-18.335
2019.07.22 14:01:20.180,8.856,-1.573,5.773,5.063,6.357,-4.246,-3.006,15.918,0.312,4.280,-15.003,2.476,-10.746,8.113,-6.888,-3.155,16.423,11.297,-19.978
2019.07.22 14:01:20.184,10.263,-1.498,3.719,0.376,3.233,-4.689,-2.797,12.195,-2.140,5.429,-18.637,1.193,-14.720,6.337,-13.266,-1.227,11.952,9.206,-20.034
2019.07.22 14:01:20.188,11.698,0.959,4.385,-1.832,2.530,-1.613,-2.178,9.237,-2.502,7.980,-21.282,-0.414,-16.679,3.586,-16.479,-0.991,9.636,6.861,-18.658
2019.07.22 14:01:20.192,12.914,5.026,8.093,-1.266,4.307,3.518,-0.685,7.222,-0.592,9.961,-22.144,-2.580,-16.160,0.488,-16.279,-2.578,10.263,4.763,-16.820
2019.07.22 14:01:20.196,14.747,9.653,13.383,1.128,7.840,8.479,2.268,6.093,3.179,9.740,-20.638,-5.223,-13.202,-1.847,-13.584,-4.528,13.316,2.948,-15.443
2019.07.22 14:01:20.200,18.522,14.278,18.216,4.259,12.341,11.927,6.744,5.746,8.043,7.479,-16.832,-7.811,-8.323,-2.397,-9.580,-4.894,17.580,1.256,-14.618
2019.07.22 14:01:20.204,24.756,19.044,21.512,7.747,17.422,14.135,12.013,6.067,13.194,5.250,-11.555,-9.588,-2.407,-0.836,-4.957,-2.588,21.948,-0.336,-13.584
2019.07.22 14:01:20.208,32.288,24.348,23.759,11.849,22.957,16.318,16.951,6.872,18.017,5.598,-6.019,-10.030,3.474,2.268,0.190,1.993,25.828,-1.628,-11.493
2019.07.22 14:01:20.212,38.721,30.170,26.315,16.695,28.599,19.251,20.796,7.897,22.168,9.598,-1.207,-9.187,8.344,5.801,5.824,7.320,29.017,-2.405,-8.308
2019.07.22 14:01:20.216,42.022,35.818,30.083,21.666,33.535,22.474,23.603,8.934,25.529,15.925,2.534,-7.648,11.645,8.763,11.404,11.630,31.355,-2.669,-5.039
2019.07.22 14:01:20.220,42.029,40.306,34.698,25.574,36.824,24.792,26.002,9.985,28.114,21.712,5.420,-6.131,13.462,10.792,15.867,13.700,32.578,-2.637,-3.057
2019.07.22 14:01:20.224,40.601,43.057,38.814,27.522,38.084,25.532,28.465,11.255,30.005,24.568,7.816,-4.999,14.491,12.241,18.269,13.185,32.495,-2.540,-3.038
2019.07.22 14:01:20.228,40.196,44.285,41.117,27.648,37.892,25.355,30.727,12.920,31.319,24.237,9.865,-4.069,15.679,13.819,18.558,10.581,31.242,-2.423,-4.404
2019.07.22 14:01:20.232,41.955,44.754,41.140,27.071,37.438,25.781,31.867,14.829,32.178,22.626,11.439,-2.861,17.670,16.080,17.801,7.064,29.326,-2.190,-5.737
2019.07.22 14:01:20.236,44.837,45.105,39.288,27.067,37.606,27.798,30.999,16.409,32.617,22.223,12.361,-1.080,20.369,19.061,17.541,4.202,27.355,-1.801,-5.866
2019.07.22 14:01:20.240,46.483,45.331,36.214,28.161,38.191,30.771,27.964,16.926,32.482,24.119,12.575,1.029,22.883,22.240,18.697,3.446,25.710,-1.403,-4.743
2019.07.22 14:01:20.244,45.081,44.811,32.252,29.891,37.926,32.689,23.450,15.948,31.380,27.138,12.078,2.759,23.926,24.779,20.795,5.414,24.429,-1.169,-3.442
2019.07.22 14:01:20.248,40.694,42.862,27.438,31.351,35.395,31.623,18.468,13.661,28.813,28.696,10.681,3.370,22.457,25.892,22.148,9.346,23.380,-1.004,-3.294
2019.07.22 14:01:20.252,35.041,39.345,21.977,31.969,30.178,27.223,13.668,10.771,24.466,26.696,7.948,2.563,18.215,25.166,20.925,13.217,22.490,-0.420,-4.878
2019.07.22 14:01:20.256,30.007,34.842,16.609,31.803,23.368,21.012,9.082,8.020,18.549,21.050,3.508,0.627,11.850,22.720,16.379,14.686,21.799,1.169,-7.637
2019.07.22 14:01:20.260,26.242,30.319,12.391,31.163,17.028,15.246,4.457,5.666,11.922,13.747,-2.463,-1.833,4.604,19.105,9.375,12.375,21.284,3.904,-10.362
2019.07.22 14:01:20.264,23.010,26.548,10.043,30.031,12.953,11.303,-0.205,3.334,5.865,7.490,-9.005,-4.344,-2.231,14.999,1.870,6.671,20.670,7.135,-12.083
2019.07.22 14:01:20.268,19.304,23.741,9.430,27.902,11.613,8.900,-4.437,0.366,1.532,3.960,-14.717,-6.831,-7.774,10.825,-4.267,-0.547,19.498,9.663,-12.652
2019.07.22 14:01:20.272,15.135,21.592,9.670,24.278,12.009,6.733,-7.612,-3.564,-0.603,2.908,-18.518,-9.485,-11.716,6.556,-8.252,-7.056,17.453,10.486,-12.639
2019.07.22 14:01:20.276,11.793,19.648,9.808,19.352,12.492,3.864,-9.446,-8.038,-0.937,2.632,-20.261,-12.375,-14.157,1.876,-10.527,-11.478,14.687,9.499,-12.741
2019.07.22 14:01:20.280,10.845,17.686,9.524,14.215,11.930,0.661,-10.149,-12.007,-0.383,1.377,-20.687,-15.159,-15.291,-3.349,-12.055,-13.702,11.843,7.596,-13.241
2019.07.22 14:01:20.284,12.777,15.890,9.306,10.311,10.412,-1.500,-10.058,-14.374,0.331,-1.392,-20.699,-17.181,-15.154,-8.601,-13.339,-14.372,9.715,6.032,-13.926
2019.07.22 14:01:20.288,16.503,14.764,10.006,8.535,9.061,-1.418,-9.108,-14.647,1.239,-4.686,-20.526,-17.926,-13.594,-12.682,-13.959,-14.052,8.801,5.529,-14.402
2019.07.22 14:01:20.292,20.160,14.887,12.187,8.707,9.186,0.926,-6.715,-13.221,3.130,-6.770,-19.470,-17.478,-10.475,-14.277,-12.921,-12.832,9.094,5.807,-14.456
2019.07.22 14:01:20.296,22.470,16.615,15.750,9.833,11.379,4.365,-2.323,-11.096,6.858,-6.399,-16.489,-16.609,-5.972,-12.848,-9.546,-10.664,10.221,5.903,-14.131
2019.07.22 14:01:20.300,23.497,19.815,20.036,10.893,15.135,7.467,3.802,-9.263,12.411,-3.648,-11.193,-16.346,-0.785,-9.239,-4.190,-7.963,11.755,4.995,-13.532
2019.07.22 14:01:20.304,24.189,23.746,24.165,11.473,19.130,9.488,10.242,-8.191,18.408,0.169,-4.460,-17.307,3.928,-5.468,1.746,-5.765,13.374,3.063,-12.625
2019.07.22 14:01:20.308,25.201,27.180,27.307,11.761,21.897,10.561,14.988,-7.736,22.509,3.358,1.863,-19.255,6.928,-3.692,6.534,-5.162,14.775,0.864,-11.242
2019.07.22 14:01:20.312,26.117,28.838,28.766,12.022,22.461,11.083,16.593,-7.478,22.621,4.843,6.006,-21.204,7.449,-4.950,9.062,-6.456,15.514,-0.697,-9.285
2019.07.22 14:01:20.316,25.759,27.981,28.045,12.130,20.638,10.987,15.071,-7.154,18.187,4.647,7.324,-22.014,5.627,-8.508,9.387,-8.820,15.053,-1.276,-6.898
2019.07.22 14:01:20.320,23.264,24.825,25.045,11.609,16.948,9.682,11.838,-6.852,10.675,3.596,6.591,-21.074,2.507,-12.311,8.544,-10.856,13.076,-1.282,-4.428
2019.07.22 14:01:20.324,18.919,20.451,20.294,10.112,12.286,6.690,8.708,-6.833,2.877,2.513,5.363,-18.613,-0.455,-14.274,7.819,-11.643,9.813,-1.476,-2.224
2019.07.22 14:01:20.328,13.996,16.166,14.900,7.814,7.525,2.347,6.704,-7.192,-2.662,1.532,4.890,-15.468,-2.181,-13.562,7.975,-11.419,6.029,-2.345,-0.474
2019.07.22 14:01:20.332,9.758,12.687,10.070,5.278,3.220,-2.201,5.548,-7.685,-5.086,0.011,5.346,-12.531,-2.592,-11.033,8.894,-11.307,2.583,-3.780,0.776
2019.07.22 14:01:20.336,6.534,9.712,6.443,2.893,-0.528,-5.807,4.163,-7.917,-5.620,-2.901,5.868,-10.291,-2.667,-8.555,9.780,-12.327,-0.121,-5.260,1.472
2019.07.22 14:01:20.340,3.682,6.221,3.731,0.427,-4.010,-8.269,1.695,-7.752,-6.662,-7.482,5.250,-8.785,-3.847,-7.742,9.657,-14.531,-2.346,-6.295,1.467
2019.07.22 14:01:20.344,0.384,1.341,1.032,-2.816,-7.694,-10.553,-1.766,-7.602,-10.150,-13.058,2.755,-7.915,-7.148,-9.001,7.833,-17.005,-4.677,-6.691,0.624
2019.07.22 14:01:20.348,-3.517,-4.850,-2.382,-7.291,-11.949,-14.028,-5.297,-8.286,-16.326,-18.342,-1.516,-7.807,-12.547,-11.510,4.074,-18.703,-7.391,-6.462,-1.009
2019.07.22 14:01:20.352,-7.413,-11.182,-6.430,-12.563,-16.856,-19.287,-7.907,-10.506,-23.667,-22.268,-6.832,-8.868,-19.026,-14.054,-1.463,-19.362,-10.106,-5.559,-3.136
2019.07.22 14:01:20.356,-10.621,-16.035,-10.283,-17.319,-22.190,-25.525,-9.277,-14.280,-29.992,-24.688,-12.351,-11.472,-25.224,-16.024,-8.367,-19.709,-12.012,-3.775,-5.389
2019.07.22 14:01:20.360,-13.107,-18.321,-13.057,-20.116,-27.510,-30.964,-9.899,-18.759,-33.897,-26.375,-17.541,-15.520,-30.220,-17.812,-16.038,-20.803,-12.512,-0.975,-7.577
2019.07.22 14:01:20.364,-15.492,-18.062,-14.527,-20.284,-32.284,-33.969,-10.582,-22.612,-35.505,-28.274,-22.233,-20.241,-33.887,-20.346,-23.672,-23.129,-11.712,2.565,-9.766
2019.07.22 14:01:20.368,-18.263,-16.190,-15.187,-18.279,-35.913,-33.960,-11.785,-24.734,-36.021,-30.562,-26.389,-24.447,-36.605,-24.157,-30.296,-26.232,-10.318,6.069,-12.081
2019.07.22 14:01:20.372,-20.934,-13.769,-15.595,-15.221,-37.723,-31.481,-13.307,-24.820,-36.501,-32.285,-29.800,-27.103,-38.614,-28.746,-34.953,-29.150,-9.032,8.594,-14.378
2019.07.22 14:01:20.376,-22.024,-11.273,-15.603,-12.072,-37.037,-27.531,-14.494,-23.422,-36.811,-31.933,-31.968,-27.838,-39.543,-32.734,-36.981,-31.182,-7.991,9.555,-16.143
2019.07.22 14:01:20.380,-20.032,-8.479,-14.262,-9.150,-33.441,-22.867,-14.707,-21.512,-35.604,-28.621,-32.243,-27.067,-38.554,-34.725,-36.254,-32.264,-6.769,9.035,-16.755
2019.07.22 14:01:20.384,-14.654,-5.002,-10.610,-6.329,-27.146,-17.888,-13.654,-19.873,-31.379,-23.008,-30.141,-25.649,-34.998,-34.257,-33.235,-32.686,-4.938,7.616,-15.958
2019.07.22 14:01:20.388,-7.235,-0.962,-4.724,-3.636,-19.207,-13.048,-11.412,-18.767,-23.831,-17.216,-25.679,-24.349,-29.114,-32.150,-28.799,-32.540,-2.664,5.900,-14.134
2019.07.22 14:01:20.392,-0.040,2.788,1.909,-1.576,-11.338,-9.221,-8.263,-18.016,-14.495,-13.696,-19.525,-23.462,-22.187,-29.997,-23.933,-31.579,-0.731,4.147,-12.109
2019.07.22 14:01:20.396,5.104,5.112,7.160,-0.822,-5.301,-7.457,-4.584,-17.331,-6.120,-13.770,-12.869,-22.810,-15.992,-29.133,-19.424,-29.693,0.095,2.306,-10.614
2019.07.22 14:01:20.400,7.741,5.366,9.637,-1.516,-2.160,-8.209,-0.869,-16.553,-1.169,-16.831,-7.004,-22.024,-11.851,-29.777,-15.665,-27.487,-0.170,0.380,-9.832
2019.07.22 14:01:20.404,8.667,3.897,9.602,-2.880,-1.840,-10.707,2.253,-15.624,-0.423,-20.748,-2.801,-20.859,-9.924,-30.895,-12.588,-26.198,-0.546,-1.305,-9.397
2019.07.22 14:01:20.408,9.017,1.867,8.635,-3.582,-3.268,-13.158,4.145,-14.410,-2.623,-23.175,-0.352,-19.290,-9.220,-30.876,-9.737,-26.756,0.231,-2.206,-8.815
2019.07.22 14:01:20.412,9.409,0.522,8.299,-2.649,-5.044,-13.802,4.436,-12.638,-5.367,-22.864,0.969,-17.401,-8.307,-28.561,-6.492,-28.656,2.665,-2.025,-7.929
2019.07.22 14:01:20.416,9.799,0.407,8.875,-0.219,-6.202,-12.111,3.234,-10.109,-6.605,-20.161,2.052,-15.227,-6.255,-23.990,-2.395,-29.787,5.923,-1.075,-6.998
2019.07.22 14:01:20.420,9.942,1.072,9.231,2.524,-6.608,-9.207,1.068,-7.034,-5.766,-16.475,3.448,-12.766,-3.216,-18.436,2.513,-27.694,8.269,-0.190,-6.359
2019.07.22 14:01:20.424,9.807,1.404,7.901,4.177,-6.802,-7.145,-1.420,-4.156,-3.847,-13.259,5.039,-10.159,-0.294,-13.748,7.536,-21.569,8.215,-0.170,-6.020
2019.07.22 14:01:20.428,9.454,0.324,4.471,4.055,-7.475,-7.554,-3.826,-2.445,-2.562,-11.260,6.174,-7.867,1.129,-11.433,11.492,-13.414,5.519,-1.191,-5.604
2019.07.22 14:01:20.432,8.549,-2.637,0.059,2.482,-9.000,-10.652,-6.124,-2.523,-3.239,-10.491,6.152,-6.590,0.149,-11.998,13.190,-7.234,1.274,-2.662,-4.750
2019.07.22 14:01:20.436,6.166,-7.191,-3.538,0.257,-11.332,-15.289,-8.554,-4.241,-6.197,-10.745,4.643,-6.905,-3.291,-14.855,11.975,-6.547,-2.952,-3.669,-3.586
2019.07.22 14:01:20.440,1.317,-12.582,-5.338,-2.194,-14.263,-19.913,-11.383,-6.788,-10.887,-12.087,1.744,-8.837,-8.574,-18.764,8.002,-11.921,-6.218,-3.651,-2.820
2019.07.22 14:01:20.444,-6.080,-18.017,-6.052,-5.206,-17.734,-23.647,-14.753,-9.300,-16.492,-14.867,-2.345,-11.713,-14.913,-22.502,2.052,-20.409,-8.674,-2.759,-3.275
2019.07.22 14:01:20.448,-14.646,-22.953,-7.542,-9.450,-21.872,-26.666,-18.638,-11.507,-22.418,-19.266,-7.620,-14.484,-21.758,-25.393,-4.973,-27.440,-11.095,-1.634,-5.225
2019.07.22 14:01:20.452,-22.026,-27.100,-11.268,-15.072,-26.689,-29.678,-22.832,-13.900,-28.353,-24.789,-14.207,-16.376,-28.845,-27.467,-12.482,-29.900,-13.946,-0.797,-8.101
2019.07.22 14:01:20.456,-26.213,-30.254,-16.923,-21.143,-31.700,-33.031,-26.893,-17.242,-33.942,-30.188,-21.896,-17.410,-35.881,-29.246,-20.212,-28.157,-16.790,-0.195,-10.845
2019.07.22 14:01:20.460,-26.720,-32.149,-22.374,-25.945,-35.835,-36.206,-30.124,-21.789,-38.504,-33.963,-29.682,-18.389,-42.179,-31.296,-27.813,-25.535,-18.535,0.713,-12.633
2019.07.22 14:01:20.464,-24.715,-32.486,-24.994,-27.944,-37.838,-38.084,-31.750,-26.855,-41.100,-35.133,-35.827,-20.303,-46.588,-33.792,-34.396,-25.640,-18.266,2.405,-13.366
2019.07.22 14:01:20.468,-22.010,-31.117,-23.397,-26.736,-36.957,-37.743,-31.334,-31.099,-40.958,-33.781,-38.577,-23.524,-47.864,-36.287,-38.506,-29.534,-15.969,4.761,-13.539
2019.07.22 14:01:20.472,-19.753,-28.244,-18.315,-23.282,-33.452,-35.132,-29.157,-33.364,-37.940,-30.999,-37.119,-27.372,-45.301,-37.841,-38.719,-34.850,-12.563,6.979,-13.627
2019.07.22 14:01:20.476,-17.855,-24.445,-12.024,-19.299,-28.518,-31.119,-26.202,-33.440,-32.700,-28.268,-32.073,-30.415,-39.223,-37.449,-34.519,-37.468,-9.259,8.044,-13.571
2019.07.22 14:01:20.480,-15.503,-20.456,-6.823,-16.229,-23.609,-26.914,-23.600,-32.145,-26.403,-26.634,-25.110,-31.333,-30.988,-34.607,-26.813,-34.462,-6.791,7.368,-12.833
2019.07.22 14:01:20.484,-12.172,-16.809,-3.704,-14.517,-19.582,-23.306,-21.848,-30.679,-20.205,-26.172,-17.926,-29.758,-22.436,-29.687,-17.620,-26.135,-5.118,5.133,-10.961
2019.07.22 14:01:20.488,-8.201,-13.584,-2.096,-13.578,-16.272,-20.283,-20.422,-29.714,-14.822,-26.033,-11.340,-26.497,-15.077,-23.865,-9.058,-15.754,-3.759,2.104,-8.131
2019.07.22 14:01:20.492,-4.467,-10.468,-0.706,-12.407,-12.811,-17.258,-18.213,-28.947,-10.426,-25.042,-5.156,-22.937,-9.500,-18.575,-2.268,-7.317,-2.397,-0.908,-5.128
2019.07.22 14:01:20.496,-1.592,-7.151,1.285,-10.351,-8.512,-13.689,-14.545,-27.415,-6.859,-22.475,1.145,-20.069,-5.325,-14.768,2.972,-3.069,-1.246,-3.501,-2.742
2019.07.22 14:01:20.500,0.496,-3.795,3.575,-7.566,-3.659,-9.643,-10.034,-24.317,-3.953,-18.547,7.516,-17.811,-1.720,-12.428,7.708,-2.502,-0.913,-5.758,-1.107
2019.07.22 14:01:20.504,2.213,-1.183,5.018,-4.913,0.415,-5.868,-6.503,-19.692,-1.729,-14.291,13.025,-15.135,1.911,-10.684,12.771,-3.289,-1.902,-7.967,0.414
2019.07.22 14:01:20.508,3.593,-0.336,4.520,-3.383,2.097,-3.337,-5.887,-14.436,-0.390,-10.891,16.394,-10.890,5.510,-8.462,18.044,-3.206,-4.176,-10.246,2.660
2019.07.22 14:01:20.512,4.000,-1.749,1.868,-3.400,0.625,-2.557,-8.857,-9.698,-0.145,-8.881,16.951,-4.725,8.465,-5.235,22.565,-1.485,-7.066,-12.386,5.890
2019.07.22 14:01:20.516,2.681,-4.777,-2.058,-4.384,-3.233,-3.106,-14.224,-6.141,-1.023,-7.783,15.203,2.571,10.101,-1.338,25.342,1.223,-9.547,-13.967,9.478
2019.07.22 14:01:20.520,-0.278,-7.711,-5.764,-4.907,-7.502,-3.763,-19.631,-3.637,-2.782,-6.478,12.530,9.532,10.168,2.372,26.188,3.919,-10.702,-14.622,12.357
2019.07.22 14:01:20.524,-3.551,-8.667,-7.988,-3.453,-10.181,-3.213,-23.067,-1.585,-4.973,-4.111,10.227,14.889,8.973,5.201,25.882,6.237,-10.133,-14.248,13.837
2019.07.22 14:01:20.528,-5.274,-6.798,-8.382,0.560,-10.504,-0.920,-24.103,0.442,-7.117,-0.898,8.651,18.202,7.099,7.091,25.518,8.483,-8.183,-13.044,14.090
2019.07.22 14:01:20.532,-4.405,-3.001,-7.678,6.107,-9.408,2.397,-23.931,2.266,-8.916,1.798,7.111,19.799,4.966,8.453,25.569,10.838,-5.891,-11.411,13.881
2019.07.22 14:01:20.536,-1.624,0.470,-7.257,10.785,-8.854,5.043,-24.251,3.197,-10.382,2.285,4.565,20.175,2.591,9.540,25.428,12.633,-4.652,-9.800,13.813
2019.07.22 14:01:20.540,1.050,1.346,-8.336,12.025,-10.476,5.303,-25.909,2.542,-11.801,-0.275,0.517,19.435,-0.276,9.944,23.818,12.517,-5.602,-8.577,13.775
2019.07.22 14:01:20.544,1.721,-1.212,-11.204,8.656,-14.467,2.481,-28.336,0.134,-13.519,-5.174,-4.565,17.295,-3.776,8.758,19.803,9.535,-8.978,-7.907,13.112
2019.07.22 14:01:20.548,-0.007,-6.052,-14.946,1.821,-19.476,-2.655,-30.144,-3.512,-15.651,-10.499,-9.570,13.640,-7.632,5.396,13.642,4.225,-13.800,-7.691,11.366
2019.07.22 14:01:20.552,-2.855,-10.779,-17.872,-5.491,-23.521,-8.332,-30.265,-7.487,-17.904,-14.328,-13.453,9.116,-11.145,0.408,6.862,-1.264,-18.214,-7.597,8.921
2019.07.22 14:01:20.556,-5.007,-13.317,-18.479,-10.135,-25.245,-12.840,-28.671,-10.970,-19.650,-15.883,-15.733,5.122,-13.493,-4.462,1.491,-4.344,-20.434,-7.221,6.911
2019.07.22 14:01:20.560,-5.606,-13.204,-16.404,-10.697,-24.642,-15.475,-26.141,-13.576,-20.258,-15.802,-16.463,3.054,-14.094,-7.206,-1.013,-3.683,-19.790,-6.333,6.409
2019.07.22 14:01:20.564,-5.338,-11.738,-12.760,-8.285,-22.829,-16.705,-23.414,-15.380,-19.485,-15.343,-15.834,3.312,-12.821,-6.858,-0.421,-0.170,-17.185,-5.063,7.565
2019.07.22 14:01:20.568,-5.681,-10.920,-9.553,-5.662,-21.149,-17.505,-20.562,-16.680,-17.653,-15.189,-13.883,4.858,-9.956,-4.173,2.366,3.643,-14.582,-3.897,9.425
2019.07.22 14:01:20.572,-7.513,-11.986,-8.501,-5.300,-20.321,-18.419,-17.159,-17.708,-15.462,-14.883,-10.590,5.791,-6.015,-1.078,6.017,5.292,-13.785,-3.428,10.630
2019.07.22 14:01:20.576,-10.300,-14.574,-10.004,-7.729,-20.188,-19.098,-13.026,-18.451,-13.550,-13.355,-6.206,4.619,-1.577,0.739,9.530,4.096,-15.326,-4.027,10.434
2019.07.22 14:01:20.580,-12.516,-17.065,-12.951,-11.315,-20.100,-18.660,-8.816,-18.656,-12.081,-10.119,-1.436,1.322,2.809,1.003,12.582,1.560,-18.205,-5.621,9.232
2019.07.22 14:01:20.584,-12.862,-17.741,-15.515,-13.553,-19.472,-16.544,-5.801,-17.963,-10.676,-6.073,2.814,-2.568,6.689,0.858,15.377,0.190,-20.660,-7.731,8.172
2019.07.22 14:01:20.588,-11.198,-15.915,-16.400,-12.864,-18.071,-13.123,-5.002,-16.076,-8.735,-3.124,5.944,-4.994,9.800,1.689,18.230,1.616,-21.395,-9.735,8.217
2019.07.22 14:01:20.592,-8.430,-12.260,-15.668,-9.565,-15.915,-9.570,-6.396,-12.925,-5.926,-2.827,7.995,-4.724,12.153,3.778,21.223,5.417,-20.366,-11.181,9.435
2019.07.22 14:01:20.596,-5.596,-8.266,-14.599,-5.421,-13.056,-7.093,-8.912,-8.755,-2.485,-5.092,9.509,-2.079,14.011,5.966,24.134,9.519,-18.631,-11.961,11.090
2019.07.22 14:01:20.600,-3.062,-5.321,-14.708,-2.265,-9.566,-6.177,-11.247,-4.097,0.884,-8.047,11.004,1.504,15.703,6.698,26.603,11.821,-17.453,-12.283,12.388
2019.07.22 14:01:20.604,-0.588,-4.077,-16.620,-0.808,-5.753,-6.414,-12.804,0.402,3.430,-9.257,12.517,4.648,17.353,5.591,28.369,11.765,-17.386,-12.493,13.203
2019.07.22 14:01:20.608,1.903,-4.401,-19.598,-0.486,-2.319,-7.009,-13.967,4.224,4.780,-7.408,13.624,7.036,18.738,4.152,29.419,10.653,-18.018,-12.892,14.155
2019.07.22 14:01:20.612,3.688,-5.732,-21.992,-0.256,-0.171,-7.457,-15.498,7.179,5.065,-3.172,13.876,9.460,19.416,4.886,29.995,10.512,-18.453,-13.609,16.005
2019.07.22 14:01:20.616,3.491,-7.460,-22.297,0.444,0.062,-7.801,-17.650,9.419,4.689,1.402,13.268,12.946,19.030,9.385,30.465,12.436,-18.073,-14.584,18.908
2019.07.22 14:01:20.620,0.485,-9.090,-20.096,1.371,-1.556,-8.329,-19.819,11.244,3.931,4.448,12.271,17.718,17.581,16.881,31.112,15.765,-16.980,-15.619,22.183
2019.07.22 14:01:20.624,-4.809,-10.263,-16.339,1.907,-4.326,-9.077,-21.064,12.800,2.713,5.536,11.376,22.836,15.418,24.525,31.950,18.714,-15.825,-16.474,24.767
2019.07.22 14:01:20.628,-10.594,-10.797,-12.813,1.725,-7.430,-9.684,-21.012,13.887,0.726,5.671,10.559,26.787,12.978,29.252,32.666,19.923,-15.266,-16.970,25.932
2019.07.22 14:01:20.632,-14.851,-10.772,-11.165,1.038,-10.450,-9.751,-20.274,13.994,-2.177,6.128,9.177,28.502,10.504,29.832,32.754,19.593,-15.488,-17.054,25.673
2019.07.22 14:01:20.636,-16.526,-10.535,-11.985,0.284,-13.409,-9.339,-19.913,12.565,-5.601,7.205,6.459,27.972,8.018,27.506,31.811,19.271,-16.102,-16.767,24.482
2019.07.22 14:01:20.640,-15.901,-10.446,-14.440,-0.365,-16.243,-9.038,-20.363,9.328,-8.543,7.974,2.243,26.009,5.558,24.732,29.807,20.437,-16.376,-16.144,22.791
2019.07.22 14:01:20.644,-13.925,-10.524,-16.618,-1.142,-18.221,-9.448,-20.752,4.501,-9.759,7.214,-2.640,23.426,3.441,23.088,27.129,23.103,-15.605,-15.095,20.626
2019.07.22 14:01:20.648,-11.219,-10.274,-16.470,-2.355,-17.972,-10.501,-19.346,-1.224,-8.399,4.665,-6.711,20.402,2.226,22.074,24.331,25.604,-13.396,-13.418,17.778
2019.07.22 14:01:20.652,-7.694,-8.990,-12.913,-3.978,-14.331,-11.307,-14.861,-6.903,-4.573,1.463,-8.713,16.557,2.309,19.754,21.756,25.817,-9.872,-10.985,14.292
2019.07.22 14:01:20.656,-3.123,-6.412,-6.542,-5.635,-7.467,-10.798,-7.675,-11.654,0.494,-0.693,-8.374,11.639,3.454,14.668,19.337,22.788,-5.758,-8.001,10.764
2019.07.22 14:01:20.660,1.991,-3.223,0.510,-7.037,0.654,-8.740,0.089,-14.954,4.902,-0.947,-6.525,6.158,4.724,7.375,16.754,17.442,-2.300,-5.113,8.128
2019.07.22 14:01:20.664,6.198,-0.919,5.599,-8.450,7.048,-6.222,5.743,-16.802,6.932,-0.078,-4.485,1.349,5.005,0.299,13.851,11.787,-0.884,-3.227,7.065
2019.07.22 14:01:20.668,7.915,-0.970,6.996,-10.655,9.391,-5.111,7.654,-17.696,5.928,0.061,-3.164,-1.542,3.824,-3.982,10.977,7.351,-2.397,-3.057,7.531
2019.07.22 14:01:20.672,6.654,-3.820,4.854,-14.317,7.461,-6.754,6.113,-18.383,2.694,-1.975,-2.537,-2.087,1.845,-4.605,8.911,4.230,-6.633,-4.713,8.817
2019.07.22 14:01:20.676,3.563,-8.453,1.065,-19.269,3.314,-10.913,2.855,-19.460,-0.877,-6.005,-1.804,-0.916,0.587,-2.908,8.398,1.562,-12.218,-7.613,10.091
2019.07.22 14:01:20.680,0.697,-12.918,-1.976,-24.364,-0.018,-15.787,-0.303,-21.014,-2.807,-10.271,-0.057,0.812,1.465,-1.217,9.626,-1.045,-17.233,-10.828,10.974
2019.07.22 14:01:20.684,-0.472,-15.485,-2.904,-28.128,-0.393,-19.174,-2.628,-22.521,-2.103,-12.737,3.063,2.243,4.829,-1.005,12.085,-2.568,-20.263,-13.609,11.707
2019.07.22 14:01:20.688,-0.099,-15.633,-2.159,-29.728,2.274,-19.905,-4.575,-23.135,0.749,-12.580,7.157,3.273,9.696,-1.968,14.936,-1.154,-21.151,-15.737,12.802
2019.07.22 14:01:20.692,0.312,-14.188,-1.463,-29.487,6.295,-18.488,-6.901,-22.247,4.217,-10.710,11.399,4.295,14.417,-2.688,17.595,4.085,-20.920,-17.445,14.537
2019.07.22 14:01:20.696,-0.743,-12.596,-2.402,-28.526,9.554,-16.544,-9.633,-19.962,6.801,-8.964,15.074,5.566,17.772,-2.149,20.057,11.629,-20.882,-19.024,16.734
2019.07.22 14:01:20.700,-3.484,-11.916,-5.217,-27.840,10.841,-15.549,-11.831,-17.132,8.001,-8.678,17.947,6.849,19.679,-0.647,22.679,17.964,-21.623,-20.474,18.977
2019.07.22 14:01:20.704,-6.715,-12.305,-8.742,-27.597,10.240,-15.907,-12.334,-14.855,8.476,-9.797,20.222,7.688,20.994,0.691,25.626,19.849,-22.647,-21.492,21.022
2019.07.22 14:01:20.708,-8.914,-13.267,-11.490,-27.207,8.499,-16.993,-10.848,-13.723,9.247,-11.176,22.205,8.029,22.597,1.277,28.493,16.801,-22.956,-21.801,22.980
2019.07.22 14:01:20.712,-9.574,-14.321,-12.967,-26.053,6.149,-17.966,-8.414,-13.358,10.577,-11.685,23.943,8.510,24.517,1.910,30.462,11.691,-22.042,-21.467,25.092
2019.07.22 14:01:20.716,-9.624,-15.444,-14.060,-24.157,3.193,-18.539,-6.811,-12.605,11.446,-11.157,25.097,9.996,25.809,4.175,30.911,8.746,-20.435,-20.909,27.304
2019.07.22 14:01:20.720,-10.580,-16.933,-16.146,-22.199,-0.431,-19.048,-7.305,-10.317,10.166,-10.389,25.110,12.664,25.282,8.805,29.948,10.328,-19.315,-20.542,29.062
2019.07.22 14:01:20.724,-13.183,-18.882,-19.649,-20.877,-4.193,-19.871,-9.700,-6.226,5.757,-10.311,23.533,15.428,22.478,14.473,28.393,15.028,-19.490,-20.376,29.559
2019.07.22 14:01:20.728,-16.671,-20.823,-23.301,-20.244,-6.898,-20.838,-12.438,-1.297,-0.945,-11.108,20.296,16.369,18.134,18.273,27.164,18.694,-20.634,-19.959,28.296
2019.07.22 14:01:20.732,-19.284,-21.902,-24.839,-19.645,-7.384,-21.239,-13.666,2.712,-7.423,-12.055,15.790,14.001,13.749,17.727,26.559,17.696,-21.454,-18.742,25.498
2019.07.22 14:01:20.736,-19.520,-21.446,-22.683,-18.326,-5.434,-20.433,-12.489,4.210,-10.911,-12.165,10.709,8.444,10.600,12.766,26.019,11.886,-20.674,-16.599,22.034
2019.07.22 14:01:20.740,-17.091,-19.404,-17.264,-16.141,-2.053,-18.450,-9.483,2.645,-10.167,-11.012,5.798,1.545,8.985,6.018,24.591,4.820,-18.024,-14.007,18.873
2019.07.22 14:01:20.744,-12.857,-16.265,-10.892,-13.683,1.240,-15.986,-6.156,-1.237,-6.279,-9.013,1.616,-4.264,8.241,1.028,21.726,1.000,-14.388,-11.709,16.468
2019.07.22 14:01:20.748,-7.964,-12.516,-6.187,-11.707,3.592,-13.750,-3.798,-5.847,-1.836,-6.945,-1.550,-7.550,7.477,-0.253,17.778,2.325,-11.011,-10.099,14.544
2019.07.22 14:01:20.752,-3.028,-8.178,-4.261,-10.371,5.482,-11.757,-2.621,-9.578,0.953,-5.213,-3.619,-8.678,6.406,1.293,13.837,6.642,-8.460,-8.872,12.423
2019.07.22 14:01:20.756,1.948,-2.858,-4.059,-9.024,8.270,-9.260,-1.786,-11.456,1.808,-3.520,-4.572,-9.194,5.613,2.997,11.076,9.611,-6.254,-7.262,9.662
2019.07.22 14:01:20.760,7.009,3.657,-3.350,-6.804,12.945,-5.426,-0.253,-11.322,2.416,-1.245,-4.364,-10.285,6.078,2.882,10.146,8.404,-3.493,-4.743,6.492
2019.07.22 14:01:20.764,11.737,10.801,-0.562,-3.529,19.094,-0.205,2.264,-9.566,4.925,1.891,-2.948,-11.587,8.380,1.543,11.055,4.189,0.087,-1.604,3.762
2019.07.22 14:01:20.768,15.373,17.193,3.981,-0.062,24.951,5.400,4.971,-6.730,10.074,5.503,-0.406,-11.349,12.202,1.851,13.485,1.316,3.598,1.094,2.428
2019.07.22 14:01:20.772,17.448,21.302,8.357,2.232,28.537,9.938,6.542,-3.244,16.423,8.866,2.967,-7.887,16.521,6.650,17.124,3.795,5.536,2.200,2.936
2019.07.22 14:01:20.776,18.261,22.363,10.554,2.555,29.006,12.497,6.137,0.584,21.283,11.566,6.683,-1.175,20.270,16.269,21.657,11.900,4.978,1.288,4.939
2019.07.22 14:01:20.780,18.616,20.846,9.950,1.366,27.120,13.251,4.094,4.460,22.631,13.789,10.232,6.742,22.947,27.816,26.479,21.668,2.430,-1.018,7.506
2019.07.22 14:01:20.784,18.994,18.131,7.642,0.104,24.540,13.126,1.786,8.014,20.522,15.945,13.260,12.917,24.719,36.851,30.546,27.730,-0.404,-3.479,9.665
2019.07.22 14:01:20.788,18.948,15.651,5.475,0.148,22.523,12.913,0.719,10.838,16.933,17.933,15.634,15.409,26.000,40.171,32.703,27.218,-1.780,-5.074,10.922
2019.07.22 14:01:20.792,17.391,14.165,4.667,1.858,21.117,12.650,1.512,12.618,14.221,18.813,17.355,14.509,26.911,37.643,32.380,21.678,-1.082,-5.601,11.443
2019.07.22 14:01:20.796,13.679,13.645,5.117,4.467,19.454,11.809,3.483,13.279,13.420,17.359,18.418,12.351,27.092,31.861,30.103,15.546,0.914,-5.610,11.828
2019.07.22 14:01:20.800,8.576,13.739,5.833,6.823,16.825,10.094,5.133,13.058,13.711,13.194,18.771,11.257,25.997,26.074,27.321,12.565,2.818,-5.809,12.653
2019.07.22 14:01:20.804,4.138,14.279,5.931,8.295,13.551,8.050,5.172,12.442,13.367,7.565,18.408,12.093,23.445,22.092,25.561,13.091,3.727,-6.466,14.103
2019.07.22 14:01:20.808,2.439,15.352,5.297,9.041,10.891,6.846,3.368,11.966,11.331,2.966,17.514,13.844,19.944,19.644,25.494,14.382,3.725,-7.295,15.889
2019.07.22 14:01:20.812,4.025,16.925,4.421,9.481,10.036,7.339,0.638,11.912,8.114,1.641,16.457,14.623,16.516,17.380,26.611,13.408,3.458,-7.844,17.490
2019.07.22 14:01:20.816,7.353,18.444,3.704,9.553,11.054,9.213,-1.649,12.063,5.338,3.955,15.571,13.207,14.098,14.390,27.709,9.664,3.287,-7.987,18.492
2019.07.22 14:01:20.820,9.736,18.924,2.989,8.531,12.663,10.995,-2.602,11.697,4.355,7.866,14.844,9.866,12.923,10.898,27.755,5.562,2.882,-8.047,18.789
2019.07.22 14:01:20.824,9.131,17.559,1.758,5.646,13.063,11.030,-2.325,9.921,5.121,10.017,13.792,5.899,12.310,7.692,26.386,4.119,1.634,-8.438,18.514
2019.07.22 14:01:20.828,5.438,14.389,-0.235,0.971,11.170,8.675,-1.664,6.233,6.208,7.816,11.688,2.393,11.013,5.004,23.700,5.999,-0.522,-9.177,17.766
2019.07.22 14:01:20.832,0.353,10.427,-2.567,-4.272,7.301,4.756,-1.474,0.970,5.877,1.095,8.046,-0.683,7.937,2.012,19.667,8.511,-2.732,-9.723,16.399
2019.07.22 14:01:20.836,-4.030,7.045,-4.411,-8.355,2.819,0.918,-1.990,-4.686,3.322,-7.778,3.037,-4.297,2.786,-2.515,13.854,7.512,-3.745,-9.329,14.065
2019.07.22 14:01:20.840,-6.711,5.067,-5.257,-10.184,-0.908,-1.587,-2.791,-9.235,-0.890,-15.408,-2.495,-9.260,-3.724,-8.978,5.868,0.733,-2.962,-7.631,10.531
2019.07.22 14:01:20.844,-8.222,4.270,-5.418,-9.996,-3.390,-2.694,-3.325,-11.628,-5.406,-19.419,-7.449,-15.180,-10.202,-16.229,-3.807,-10.190,-1.085,-4.987,6.025
2019.07.22 14:01:20.848,-9.779,3.712,-5.808,-9.042,-5.071,-3.303,-3.507,-11.772,-9.095,-19.672,-11.049,-20.403,-15.259,-22.091,-13.392,-20.637,0.281,-2.278,1.330
2019.07.22 14:01:20.852,-11.963,2.621,-7.151,-8.512,-6.645,-4.316,-3.848,-10.436,-11.648,-17.919,-13.170,-23.034,-18.124,-24.782,-20.419,-26.183,-0.177,-0.334,-2.528
2019.07.22 14:01:20.856,-14.082,1.091,-9.307,-8.628,-8.280,-5.807,-4.995,-8.652,-13.381,-16.322,-14.214,-22.272,-18.891,-24.176,-23.108,-25.594,-2.429,0.571,-4.819
2019.07.22 14:01:20.860,-14.718,0.004,-11.329,-8.661,-9.444,-7.052,-7.062,-7.075,-14.604,-16.002,-14.667,-19.030,-18.279,-21.922,-21.566,-21.383,-5.121,0.757,-5.510
2019.07.22 14:01:20.864,-12.966,0.202,-12.237,-7.824,-9.430,-7.319,-9.337,-5.766,-15.210,-16.605,-14.720,-15.359,-17.126,-20.314,-17.820,-17.683,-6.658,0.756,-5.237
2019.07.22 14:01:20.868,-9.296,1.631,-11.841,-6.191,-8.072,-6.668,-10.651,-4.483,-14.856,-17.016,-14.225,-13.103,-15.924,-20.767,-14.556,-17.195,-6.478,0.851,-4.838
2019.07.22 14:01:20.872,-5.336,3.198,-10.902,-4.778,-6.000,-5.993,-10.161,-3.126,-13.462,-16.456,-12.969,-12.764,-14.660,-22.950,-13.397,-19.545,-5.446,0.938,-4.780
2019.07.22 14:01:20.876,-2.764,3.540,-10.457,-4.623,-4.186,-6.215,-7.940,-1.858,-11.475,-15.033,-10.954,-13.353,-13.006,-25.131,-13.940,-22.063,-5.022,0.770,-4.901
2019.07.22 14:01:20.880,-2.201,2.131,-10.884,-5.658,-3.161,-7.339,-4.920,-0.782,-9.577,-13.373,-8.437,-13.238,-10.650,-25.382,-14.227,-22.105,-5.911,0.322,-4.611
2019.07.22 14:01:20.884,-2.948,-0.179,-11.496,-6.394,-2.586,-8.245,-2.242,0.490,-8.108,-11.773,-5.707,-11.299,-7.541,-22.758,-12.244,-18.970,-7.349,-0.092,-3.394
2019.07.22 14:01:20.888,-3.707,-1.683,-11.054,-4.870,-1.554,-7.477,-0.522,2.844,-6.770,-9.731,-2.848,-7.587,-3.911,-17.723,-7.332,-14.065,-7.686,-0.076,-1.208
2019.07.22 14:01:20.892,-3.642,-1.066,-8.785,-0.231,0.592,-4.468,0.399,7.059,-4.950,-6.341,0.216,-3.100,-0.155,-11.692,-0.566,-9.495,-5.824,0.443,1.501
2019.07.22 14:01:20.896,-2.959,1.564,-5.103,6.280,3.591,-0.193,1.094,12.993,-2.427,-1.276,3.418,1.000,3.284,-6.151,6.039,-6.427,-2.327,1.023,4.133
2019.07.22 14:01:20.900,-2.594,4.674,-1.447,11.780,6.311,3.323,1.939,19.256,0.204,4.504,6.245,4.117,5.924,-1.975,10.739,-4.537,0.747,0.937,6.304
2019.07.22 14:01:20.904,-3.351,6.352,0.626,13.452,7.488,4.328,2.782,23.793,1.812,8.989,7.800,6.390,7.233,0.706,12.809,-2.773,1.235,-0.327,7.961
2019.07.22 14:01:20.908,-5.199,5.654,0.394,10.351,6.618,2.524,3.151,25.064,1.560,10.287,7.272,8.309,6.741,2.191,12.450,-0.600,-1.567,-2.664,9.186
2019.07.22 14:01:20.912,-7.260,3.208,-1.716,4.037,4.295,-0.772,2.757,22.980,-0.403,7.877,4.532,10.148,4.320,2.761,10.197,1.364,-6.370,-5.353,9.926
2019.07.22 14:01:20.916,-8.457,0.669,-4.598,-2.400,1.761,-3.599,1.810,18.847,-2.983,3.021,0.377,11.646,0.456,2.418,6.482,1.744,-10.792,-7.456,9.931
2019.07.22 14:01:20.920,-8.311,-0.569,-7.268,-6.252,-0.019,-4.709,0.864,14.351,-4.938,-2.036,-3.820,12.131,-3.774,0.900,1.654,-0.598,-13.007,-8.337,8.962
2019.07.22 14:01:20.924,-7.300,-0.401,-9.367,-6.753,-1.041,-4.351,0.330,10.356,-5.784,-5.533,-6.854,10.921,-7.143,-2.101,-3.746,-5.775,-12.897,-7.946,7.083
2019.07.22 14:01:20.928,-6.550,-0.019,-11.078,-5.304,-2.219,-3.938,0.105,6.465,-6.095,-7.273,-8.326,7.720,-8.959,-6.682,-8.919,-12.777,-11.924,-6.740,4.747
2019.07.22 14:01:20.932,-7.106,-0.937,-12.690,-4.347,-4.647,-4.940,-0.323,1.683,-6.965,-8.539,-8.741,2.777,-9.508,-12.567,-13.150,-19.992,-11.897,-5.337,2.559
2019.07.22 14:01:20.936,-9.293,-3.819,-14.265,-5.727,-8.737,-7.817,-1.408,-4.431,-9.097,-10.955,-9.028,-3.228,-9.900,-19.092,-16.260,-25.899,-13.643,-4.179,0.892
2019.07.22 14:01:20.940,-12.562,-7.996,-15.674,-9.642,-13.839,-11.741,-3.101,-11.092,-12.248,-15.170,-9.865,-9.451,-11.331,-25.340,-18.712,-29.598,-16.528,-3.384,-0.331
2019.07.22 14:01:20.944,-15.898,-12.015,-16.879,-14.739,-18.609,-15.206,-4.841,-16.696,-15.454,-20.321,-11.274,-15.159,-14.236,-30.379,-21.176,-31.070,-19.091,-2.817,-1.521
2019.07.22 14:01:20.948,-18.477,-14.739,-18.098,-19.132,-21.814,-17.030,-5.962,-19.941,-17.775,-24.645,-12.739,-19.883,-17.937,-33.513,-23.886,-31.160,-20.169,-2.253,-3.054
2019.07.22 14:01:20.952,-20.141,-16.120,-19.631,-21.572,-23.003,-17.033,-6.163,-20.708,-18.891,-26.683,-13.656,-23.440,-21.056,-34.458,-26.340,-31.236,-19.656,-1.507,-4.953
2019.07.22 14:01:20.956,-21.380,-17.069,-21.490,-22.020,-22.596,-15.987,-5.619,-19.930,-19.105,-26.169,-13.722,-25.821,-22.398,-33.364,-27.626,-32.499,-18.397,-0.491,-6.845
2019.07.22 14:01:20.960,-22.842,-18.578,-23.169,-21.364,-21.395,-14.967,-4.674,-18.601,-18.803,-23.970,-13.001,-27.032,-21.636,-30.716,-27.097,-35.151,-17.435,0.779,-8.190
2019.07.22 14:01:20.964,-24.694,-20.787,-23.820,-20.601,-19.935,-14.582,-3.437,-16.814,-17.935,-21.253,-11.675,-26.981,-19.317,-27.136,-24.804,-37.944,-17.259,2.175,-8.557
2019.07.22 14:01:20.968,-26.283,-22.736,-22.731,-20.069,-18.149,-14.593,-1.687,-13.731,-15.989,-18.612,-9.785,-25.481,-16.221,-23.187,-21.329,-38.628,-17.567,3.468,-7.768
2019.07.22 14:01:20.972,-26.355,-22.946,-19.764,-19.218,-15.554,-14.090,0.800,-8.541,-12.466,-15.835,-7.193,-22.405,-12.677,-19.223,-17.193,-35.243,-17.615,4.379,-5.840
2019.07.22 14:01:20.976,-23.751,-20.370,-15.438,-17.014,-11.758,-12.062,3.804,-1.565,-7.437,-12.389,-3.827,-17.892,-8.420,-15.318,-12.451,-27.537,-16.751,4.705,-2.908
2019.07.22 14:01:20.980,-18.169,-15.021,-10.613,-12.686,-6.876,-7.995,6.547,5.540,-1.691,-8.111,0.038,-12.450,-3.147,-11.311,-6.891,-17.454,-14.764,4.441,0.762
2019.07.22 14:01:20.984,-10.519,-7.913,-6.054,-6.352,-1.586,-2.187,8.091,10.796,3.631,-3.461,3.703,-6.862,2.741,-6.956,-0.665,-8.171,-11.883,3.828,4.685
2019.07.22 14:01:20.988,-2.643,-0.485,-2.196,0.842,3.181,4.338,7.982,13.345,7.585,0.810,6.295,-1.908,7.891,-2.149,5.252,-2.202,-8.598,3.251,8.160
2019.07.22 14:01:20.992,3.438,5.991,0.763,7.142,6.639,10.216,6.619,14.134,9.746,4.215,7.204,1.926,10.610,2.903,9.366,0.112,-5.503,3.041,10.502
2019.07.22 14:01:20.996,6.345,10.668,2.614,10.936,8.377,14.242,5.044,15.152,10.151,6.747,6.430,4.590,9.963,7.704,10.597,0.624,-3.236,3.263,11.402
2019.07.22 14:01:21.000,5.818,13.064,3.030,11.446,8.361,15.769,4.294,17.791,9.076,8.571,4.641,6.356,6.551,11.693,9.162,1.844,-2.368,3.666,11.166
2019.07.22 14:01:21.004,2.692,13.026,1.741,9.031,6.858,14.904,4.811,21.621,6.951,9.570,2.887,7.560,2.313,14.561,6.622,4.993,-3.170,3.820,10.586
2019.07.22 14:01:21.008,-1.484,10.904,-1.115,5.000,4.411,12.448,6.325,24.615,4.457,9.280,2.136,8.383,-0.564,16.407,4.940,9.117,-5.325,3.401,10.482
2019.07.22 14:01:21.012,-4.981,7.760,-4.762,1.047,1.870,9.612,8.208,24.694,2.552,7.360,2.849,8.787,-0.917,17.575,5.206,11.919,-7.866,2.448,11.207
2019.07.22 14:01:21.016,-6.409,5.239,-7.922,-1.427,0.280,7.571,9.939,21.353,2.172,4.175,4.781,8.636,0.823,18.277,6.970,11.616,-9.514,1.413,12.471
2019.07.22 14:01:21.020,-5.164,4.859,-9.344,-1.837,0.497,6.985,11.299,16.054,3.650,0.817,7.117,7.846,3.122,18.268,8.705,8.354,-9.328,0.937,13.605
2019.07.22 14:01:21.024,-1.703,7.040,-8.439,-0.619,2.664,7.661,12.209,11.077,6.297,-1.651,8.851,6.455,4.466,16.896,9.010,4.068,-7.294,1.457,14.059
2019.07.22 14:01:21.028,2.526,10.561,-5.667,0.942,5.906,8.559,12.487,7.762,8.600,-3.196,9.259,4.575,4.303,13.547,7.609,0.941,-4.434,2.879,13.748
2019.07.22 14:01:21.032,5.639,13.005,-2.408,1.213,8.585,8.219,11.842,5.590,9.060,-5.111,8.227,2.324,3.174,8.209,5.395,-0.273,-2.297,4.546,13.006
2019.07.22 14:01:21.036,6.231,12.119,-0.339,-1.082,9.137,5.507,10.143,2.864,7.162,-9.125,6.253,-0.176,2.074,1.731,3.562,-0.733,-2.100,5.580,12.258
2019.07.22 14:01:21.040,4.180,7.268,-0.616,-6.214,6.997,0.315,7.685,-1.606,3.760,-15.814,4.143,-2.697,1.626,-4.436,2.600,-2.426,-4.046,5.417,11.683
2019.07.22 14:01:21.044,0.768,-0.018,-3.296,-13.161,3.024,-6.199,5.125,-7.204,0.547,-23.581,2.560,-4.818,1.713,-8.880,1.989,-6.417,-7.236,4.190,11.164
2019.07.22 14:01:21.048,-2.096,-6.859,-7.298,-19.903,-0.951,-12.083,3.070,-11.705,-1.040,-29.219,1.719,-5.983,1.777,-10.833,0.821,-11.804,-10.210,2.683,10.510
2019.07.22 14:01:21.052,-3.119,-10.702,-10.948,-24.251,-3.186,-15.570,1.640,-12.835,-0.690,-29.940,1.401,-5.746,1.414,-10.392,-1.244,-16.200,-11.763,1.861,9.709
2019.07.22 14:01:21.056,-2.460,-10.757,-12.803,-24.831,-3.013,-16.014,0.426,-9.966,0.738,-25.472,1.242,-4.088,0.752,-8.304,-3.528,-17.353,-11.522,2.259,8.983
2019.07.22 14:01:21.060,-1.503,-8.212,-12.316,-21.691,-1.086,-14.172,-1.083,-4.611,1.971,-18.596,1.064,-1.589,0.297,-5.559,-4.800,-14.716,-9.994,3.654,8.586
2019.07.22 14:01:21.064,-1.687,-5.170,-9.988,-16.174,1.237,-11.620,-2.917,0.660,2.250,-13.511,0.996,0.711,0.452,-3.060,-4.286,-9.841,-8.119,5.243,8.568
2019.07.22 14:01:21.068,-3.283,-3.134,-6.970,-10.147,2.869,-9.681,-4.413,3.995,1.718,-13.060,1.304,1.750,1.135,-1.451,-2.369,-5.416,-6.717,6.189,8.715
2019.07.22 14:01:21.072,-5.154,-2.184,-4.418,-5.096,3.589,-8.617,-4.604,5.375,1.071,-16.787,2.105,0.983,1.838,-1.006,-0.387,-3.672,-6.166,6.146,8.751
2019.07.22 14:01:21.076,-5.758,-1.361,-2.987,-1.658,3.856,-7.674,-2.939,6.268,0.834,-21.297,3.213,-1.299,2.033,-1.493,0.343,-5.235,-6.468,5.373,8.594
2019.07.22 14:01:21.080,-4.635,0.154,-2.739,0.200,4.071,-5.940,0.226,8.229,0.919,-22.695,4.248,-4.066,1.565,-2.135,-0.508,-9.043,-7.518,4.397,8.445
2019.07.22 14:01:21.084,-3.101,2.101,-3.397,0.661,3.971,-3.335,3.766,11.614,0.764,-19.344,4.890,-6.038,0.704,-1.881,-2.076,-13.175,-9.290,3.530,8.610
2019.07.22 14:01:21.088,-3.431,3.219,-4.670,-0.271,2.695,-0.925,6.447,15.388,-0.139,-12.921,5.062,-6.317,-0.180,-0.026,-3.019,-15.931,-11.758,2.640,9.203
2019.07.22 14:01:21.092,-7.045,2.275,-6.378,-2.593,-0.503,-0.252,7.615,18.042,-1.839,-7.070,4.874,-4.812,-0.997,3.168,-2.591,-16.508,-14.649,1.358,9.989
2019.07.22 14:01:21.096,-13.093,-0.807,-8.358,-5.852,-5.461,-2.162,7.413,18.764,-3.967,-4.733,4.415,-2.206,-2.035,6.379,-1.217,-15.054,-17.302,-0.480,10.524
2019.07.22 14:01:21.100,-18.681,-4.672,-10.308,-8.940,-10.908,-6.038,6.461,17.884,-6.101,-6.176,3.620,0.494,-3.674,7.955,-0.148,-12.268,-18.855,-2.575,10.468
2019.07.22 14:01:21.104,-20.718,-7.359,-11.811,-10.518,-15.052,-10.072,5.319,16.339,-8.065,-9.116,2.365,2.549,-5.933,7.109,-0.470,-8.890,-18.711,-4.321,9.857
2019.07.22 14:01:21.108,-18.085,-7.614,-12.538,-9.864,-16.563,-12.411,4.211,14.721,-9.875,-10.672,0.729,3.856,-8.240,4.713,-2.227,-5.361,-16.974,-5.275,9.097
2019.07.22 14:01:21.112,-12.471,-5.692,-12.473,-7.464,-15.278,-12.323,3.144,12.802,-11.429,-9.519,-0.862,4.854,-9.629,2.981,-4.323,-1.738,-14.495,-5.510,8.708
2019.07.22 14:01:21.116,-7.221,-3.046,-11.921,-4.795,-12.147,-10.515,2.184,9.926,-12.319,-6.604,-1.778,6.067,-9.258,4.046,-5.248,2.126,-12.412,-5.535,9.001
2019.07.22 14:01:21.120,-5.025,-1.213,-11.276,-3.326,-8.563,-8.419,1.563,5.884,-12.018,-4.056,-1.573,7.610,-6.897,8.391,-4.071,6.263,-11.461,-5.825,9.918
2019.07.22 14:01:21.124,-6.195,-0.749,-10.730,-3.491,-5.573,-7.064,1.476,1.436,-10.314,-3.335,-0.308,9.021,-3.069,14.286,-0.994,10.291,-11.530,-6.356,11.117
2019.07.22 14:01:21.128,-8.753,-1.036,-10.192,-4.442,-3.501,-6.458,1.814,-2.023,-7.605,-4.188,1.473,9.556,1.237,18.762,2.875,13.357,-11.790,-6.559,12.201
2019.07.22 14:01:21.132,-10.150,-0.994,-9.463,-4.819,-2.109,-5.910,2.164,-3.427,-4.730,-5.147,3.117,8.721,5.060,19.492,6.300,14.464,-11.326,-5.774,12.929
2019.07.22 14:01:21.136,-9.208,-0.063,-8.490,-3.911,-1.020,-4.919,2.157,-2.848,-2.440,-4.984,4.298,6.680,7.846,16.228,8.623,13.054,-9.789,-3.822,13.301
2019.07.22 14:01:21.140,-6.789,1.358,-7.410,-2.225,-0.041,-3.791,1.889,-1.481,-0.935,-3.799,5.147,4.201,9.518,10.783,9.924,9.508,-7.599,-1.215,13.487
2019.07.22 14:01:21.144,-4.823,2.324,-6.327,-0.959,0.825,-3.396,1.995,-0.788,0.147,-2.821,5.990,2.201,10.264,5.629,10.627,5.167,-5.531,1.192,13.701
2019.07.22 14:01:21.148,-4.623,2.199,-5.047,-0.811,1.531,-4.300,3.219,-1.462,1.288,-3.182,6.921,1.194,10.278,2.267,10.945,1.737,-4.055,2.840,14.075
2019.07.22 14:01:21.152,-5.888,1.181,-3.093,-1.198,2.113,-6.066,5.786,-2.990,2.599,-4.792,7.625,1.056,9.653,0.610,10.675,0.392,-2.982,3.851,14.589
2019.07.22 14:01:21.156,-7.116,0.083,-0.131,-0.651,2.687,-7.420,9.089,-4.107,3.717,-6.295,7.613,1.240,8.467,-0.269,9.477,1.131,-1.723,4.842,15.057
2019.07.22 14:01:21.160,-6.926,-0.411,3.530,1.849,3.379,-7.207,11.996,-3.756,4.168,-6.130,6.673,1.250,6.930,-0.835,7.375,2.851,0.042,6.309,15.201
2019.07.22 14:01:21.164,-5.121,-0.345,6.821,5.707,4.314,-5.355,13.584,-1.804,3.850,-3.760,5.123,0.986,5.387,-0.483,4.999,4.087,1.894,8.129,14.780
2019.07.22 14:01:21.168,-2.667,-0.397,8.461,8.814,5.663,-2.999,13.744,0.972,3.185,-0.050,3.609,0.703,4.153,1.796,3.295,3.947,2.866,9.600,13.734
2019.07.22 14:01:21.172,-0.751,-1.177,7.854,9.008,7.599,-1.615,13.184,3.520,2.780,3.464,2.616,0.668,3.287,6.096,2.888,2.618,2.226,10.005,12.256
2019.07.22 14:01:21.176,0.155,-2.532,5.655,5.810,10.120,-1.856,12.851,5.202,2.922,5.715,2.115,0.839,2.551,10.900,3.601,1.146,0.225,9.211,10.728
2019.07.22 14:01:21.180,0.436,-3.498,3.460,0.991,12.823,-3.070,13.224,6.012,3.365,6.670,1.690,0.856,1.641,13.815,4.547,0.695,-1.874,7.772,9.569
2019.07.22 14:01:21.184,0.678,-3.015,2.707,-2.610,14.891,-3.918,14.035,6.230,3.616,6.931,1.066,0.375,0.582,13.315,4.811,1.808,-2.642,6.438,9.065
2019.07.22 14:01:21.188,0.939,-0.855,3.567,-3.212,15.439,-3.571,14.569,5.932,3.450,6.871,0.552,-0.570,-0.064,10.095,4.212,4.147,-1.637,5.476,9.308
2019.07.22 14:01:21.192,0.660,1.983,4.698,-1.515,14.057,-2.475,14.254,4.824,3.172,6.205,0.971,-1.486,0.586,6.831,3.535,6.794,0.060,4.405,10.245
2019.07.22 14:01:21.196,-0.723,3.801,4.171,-0.229,11.183,-2.001,13.052,2.579,3.353,4.442,3.027,-1.750,3.131,6.377,3.984,8.848,0.448,2.411,11.742
2019.07.22 14:01:21.200,-3.081,3.307,0.951,-2.011,7.952,-3.264,11.377,-0.637,4.285,1.768,6.605,-1.089,7.280,9.680,6.197,9.903,-1.973,-0.883,13.577
2019.07.22 14:01:21.204,-5.500,0.509,-4.145,-7.344,5.587,-6.099,9.714,-3.962,5.654,-0.569,10.584,0.149,11.721,15.026,9.556,10.149,-6.990,-4.911,15.376
2019.07.22 14:01:21.208,-6.918,-3.268,-8.793,-14.012,4.717,-9.090,8.300,-6.208,6.776,-0.940,13.394,1.159,14.689,19.187,12.375,10.109,-12.602,-8.387,16.598
2019.07.22 14:01:21.212,-6.917,-6.243,-10.644,-18.597,5.119,-10.648,7.112,-6.616,7.197,1.338,13.942,1.157,14.937,19.642,12.919,10.212,-16.227,-10.098,16.696
2019.07.22 14:01:21.216,-5.979,-7.294,-8.905,-18.868,6.027,-10.279,6.061,-5.417,7.120,5.120,12.228,-0.184,12.477,16.197,10.558,10.470,-16.351,-9.677,15.418
2019.07.22 14:01:21.220,-4.982,-6.547,-4.874,-15.252,6.738,-8.973,5.117,-3.758,7.200,7.880,9.206,-2.612,8.549,10.898,6.243,10.433,-13.447,-7.754,13.029
2019.07.22 14:01:21.224,-4.434,-5.077,-1.037,-10.361,7.020,-8.404,4.202,-2.976,7.851,7.335,6.013,-5.523,4.796,6.429,1.920,9.468,-9.499,-5.406,10.263
2019.07.22 14:01:21.228,-4.146,-4.037,0.618,-7.017,7.029,-9.583,2.982,-3.726,8.654,3.113,3.202,-8.308,2.212,4.325,-0.705,7.213,-6.535,-3.355,7.934
2019.07.22 14:01:21.232,-3.635,-3.903,-0.156,-6.375,6.900,-12.085,0.889,-5.558,8.452,-2.851,0.543,-10.562,0.596,4.276,-1.196,3.946,-5.282,-1.556,6.459
2019.07.22 14:01:21.236,-2.849,-4.382,-1.938,-7.514,6.407,-14.465,-2.519,-7.250,6.157,-7.575,-2.500,-12.075,-1.078,4.862,-0.488,0.581,-4.943,0.554,5.624
2019.07.22 14:01:21.240,-2.511,-4.957,-2.926,-8.629,5.043,-15.512,-7.078,-7.635,1.659,-9.069,-6.086,-12.743,-3.696,4.907,-0.066,-1.791,-4.183,3.410,4.793
2019.07.22 14:01:21.244,-3.692,-5.550,-2.445,-8.714,2.424,-15.276,-11.844,-6.323,-3.913,-7.674,-9.691,-12.534,-7.193,4.321,-0.859,-2.598,-2.457,6.839,3.430
2019.07.22 14:01:21.248,-6.919,-6.715,-1.543,-8.300,-1.315,-15.015,-15.505,-3.815,-8.824,-5.698,-12.414,-11.542,-10.526,3.894,-2.663,-2.226,-0.601,10.139,1.530
2019.07.22 14:01:21.252,-11.549,-9.181,-2.226,-8.741,-5.468,-16.104,-17.143,-1.004,-11.792,-5.634,-13.619,-10.007,-12.425,4.439,-4.428,-1.807,-0.172,12.600,-0.333
2019.07.22 14:01:21.256,-15.954,-13.082,-5.887,-10.748,-9.051,-18.791,-16.826,1.508,-12.638,-8.301,-13.341,-8.186,-12.312,6.122,-5.081,-2.388,-2.101,13.991,-1.402
2019.07.22 14:01:21.260,-18.395,-17.500,-12.055,-13.489,-11.180,-21.801,-15.529,3.730,-12.044,-12.262,-12.155,-6.159,-10.635,8.474,-4.214,-4.040,-5.730,14.609,-1.234
2019.07.22 14:01:21.264,-17.965,-20.714,-18.362,-15.006,-11.262,-23.125,-14.424,6.032,-10.696,-14.891,-10.654,-3.757,-8.393,10.883,-2.179,-5.634,-9.053,14.888,0.050
2019.07.22 14:01:21.268,-14.966,-21.050,-21.790,-13.621,-9.010,-21.352,-14.045,8.600,-8.606,-14.230,-9.028,-0.744,-6.288,12.984,0.334,-5.585,-10.003,14.928,1.924
2019.07.22 14:01:21.272,-10.549,-17.788,-20.398,-9.170,-4.478,-16.568,-13.972,11.115,-5.210,-10.246,-7.087,2.849,-4.254,14.602,2.771,-3.102,-7.833,14.393,3.850
2019.07.22 14:01:21.276,-5.980,-11.549,-14.444,-3.129,1.763,-10.184,-13.259,12.958,-0.164,-4.635,-4.657,6.553,-1.744,15.486,4.861,1.048,-3.582,12.838,5.575
2019.07.22 14:01:21.280,-2.058,-3.948,-6.222,2.399,8.467,-3.934,-11.265,13.769,5.935,0.537,-1.948,9.678,1.523,15.320,6.470,4.970,0.683,10.185,7.132
2019.07.22 14:01:21.284,1.051,3.236,1.228,5.977,13.940,1.138,-8.233,13.852,11.605,4.238,0.498,11.822,5.082,14.168,7.469,7.101,3.239,6.899,8.650
2019.07.22 14:01:21.288,3.623,8.824,5.723,7.438,16.771,5.014,-5.183,14.014,15.403,6.903,2.237,13.267,7.998,12.951,7.873,7.573,3.667,3.717,10.183
2019.07.22 14:01:21.292,6.074,12.530,6.905,7.500,16.712,8.264,-3.220,14.928,16.969,9.705,3.348,14.857,9.696,13.302,8.118,8.315,2.791,1.154,11.716
2019.07.22 14:01:21.296,8.676,14.713,6.083,6.915,15.019,11.352,-2.830,16.537,17.314,13.404,4.423,17.348,10.580,16.623,9.063,11.588,1.778,-0.797,13.273
2019.07.22 14:01:21.300,11.332,15.880,5.160,5.955,13.806,14.287,-3.668,18.045,18.029,17.741,6.096,20.689,11.819,22.912,11.533,17.990,1.217,-2.520,14.917
2019.07.22 14:01:21.304,13.460,16.317,5.382,4.587,14.657,16.802,-4.956,18.562,19.998,21.793,8.473,23.828,14.374,30.330,15.613,25.495,0.869,-4.322,16.600
2019.07.22 14:01:21.308,14.139,16.055,6.684,3.023,17.447,18.732,-6.111,17.893,22.656,24.847,10.975,25.301,18.060,36.051,20.323,30.506,0.174,-6.077,17.989
2019.07.22 14:01:21.312,12.591,15.070,7.949,1.944,20.298,20.165,-7.092,16.770,24.414,26.965,12.758,24.215,21.508,37.929,24.075,30.299,-1.026,-7.269,18.536
2019.07.22 14:01:21.316,8.825,13.487,7.928,2.102,20.821,21.216,-8.249,16.264,23.930,28.725,13.387,20.904,23.138,35.830,25.684,25.090,-2.232,-7.397,17.848
2019.07.22 14:01:21.320,3.951,11.603,6.125,3.606,17.824,21.705,-9.860,16.789,21.222,30.431,13.205,16.728,22.414,31.617,25.196,18.090,-2.709,-6.406,16.106
2019.07.22 14:01:21.324,-0.241,9.725,3.084,5.577,12.209,21.154,-11.808,17.559,17.701,31.565,13.069,13.156,20.306,27.793,23.803,13.370,-2.195,-4.777,14.136
2019.07.22 14:01:21.328,-2.349,7.991,-0.081,6.588,6.352,19.188,-13.642,17.039,15.092,31.055,13.646,10.837,18.533,25.841,22.865,13.074,-1.264,-3.201,12.965
2019.07.22 14:01:21.332,-2.365,6.330,-2.496,5.618,2.430,16.031,-14.947,14.151,14.126,28.224,14.828,9.387,18.166,25.475,22.790,16.058,-0.997,-2.101,13.109
2019.07.22 14:01:21.336,-1.779,4.582,-4.061,2.797,0.948,12.601,-15.666,9.312,14.053,23.603,15.783,8.027,18.772,25.304,22.755,18.987,-2.202,-1.379,14.143
2019.07.22 14:01:21.340,-2.511,2.670,-5.320,-0.673,0.630,10.026,-16.082,4.401,13.387,18.843,15.612,6.493,18.870,24.234,21.566,19.009,-4.780,-0.567,14.956
2019.07.22 14:01:21.344,-5.341,0.687,-6.801,-3.361,-0.294,8.905,-16.491,1.566,11.269,15.688,14.121,5.434,17.363,22.422,18.978,15.934,-7.723,0.760,14.550
2019.07.22 14:01:21.348,-9.058,-1.141,-8.386,-4.552,-2.455,8.884,-16.864,1.687,8.328,14.782,12.075,5.895,14.732,21.036,16.326,12.240,-9.744,2.637,12.818
2019.07.22 14:01:21.352,-11.094,-2.564,-9.246,-4.566,-4.699,8.931,-16.785,3.678,6.329,15.277,10.708,8.327,12.894,21.092,15.776,10.989,-10.044,4.685,10.657
2019.07.22 14:01:21.356,-9.333,-3.395,-8.434,-4.264,-4.984,8.130,-15.743,5.199,6.844,15.617,10.819,11.923,13.711,22.428,18.631,13.348,-8.708,6.375,9.308
2019.07.22 14:01:21.360,-3.769,-3.534,-5.698,-4.231,-2.092,6.389,-13.536,4.265,10.002,14.876,12.148,14.907,17.314,23.670,24.005,17.679,-6.512,7.345,9.413
2019.07.22 14:01:21.364,3.281,-2.976,-1.856,-4.334,3.213,4.497,-10.455,0.563,14.295,13.524,13.521,15.590,21.669,23.202,29.003,20.825,-4.378,7.534,10.517
2019.07.22 14:01:21.368,8.645,-1.842,1.610,-4.012,8.522,3.511,-7.107,-4.520,17.600,12.932,13.684,13.410,23.873,20.329,30.457,20.470,-2.892,7.082,11.421
2019.07.22 14:01:21.372,10.367,-0.391,3.510,-2.957,11.411,3.963,-4.013,-9.081,18.650,13.988,12.247,9.179,22.309,15.688,27.047,16.679,-2.150,6.147,11.099
2019.07.22 14:01:21.376,8.869,1.069,3.768,-1.512,11.112,5.536,-1.296,-12.118,17.860,16.021,10.055,4.428,17.993,10.695,20.298,11.513,-1.894,4.829,9.475
2019.07.22 14:01:21.380,6.374,2.390,3.511,-0.369,9.016,7.483,1.317,-14.003,16.944,17.078,8.700,0.409,14.042,6.582,13.709,7.267,-1.707,3.241,7.455
2019.07.22 14:01:21.384,5.190,3.819,4.341,0.194,7.659,9.418,4.166,-15.713,17.669,15.510,9.508,-2.425,13.590,3.863,10.633,4.909,-1.128,1.611,6.234
2019.07.22 14:01:21.388,6.234,6.018,7.284,0.841,9.002,11.796,7.285,-17.540,20.700,11.655,12.672,-4.179,17.685,2.546,12.372,3.960,0.276,0.264,6.441
2019.07.22 14:01:21.392,8.901,9.743,12.122,2.887,13.233,15.614,10.240,-18.480,25.314,8.127,17.108,-4.866,24.685,2.692,17.704,3.669,2.764,-0.551,7.784
2019.07.22 14:01:21.396,12.117,15.264,17.529,7.280,18.845,21.493,12.335,-16.908,30.061,8.239,21.113,-4.083,31.504,4.624,23.972,4.168,6.204,-0.852,9.396
2019.07.22 14:01:21.400,15.461,21.895,21.854,13.606,23.758,28.832,13.041,-12.025,33.738,13.539,23.358,-1.359,35.694,8.481,28.800,6.416,9.936,-0.937,10.545
2019.07.22 14:01:21.404,19.262,28.024,23.999,19.956,26.570,35.737,12.364,-4.865,35.938,22.326,23.585,3.131,36.789,13.548,31.240,10.939,12.963,-1.170,11.094
2019.07.22 14:01:21.408,23.649,31.754,23.866,23.899,27.110,39.902,10.897,2.056,36.873,30.400,22.594,8.212,36.068,18.129,31.777,16.635,14.431,-1.688,11.409
2019.07.22 14:01:21.412,27.571,31.843,22.185,23.964,26.102,39.888,9.508,6.284,36.799,33.683,21.582,12.168,35.131,20.309,31.504,20.931,14.148,-2.273,11.878
2019.07.22 14:01:21.416,28.906,28.361,19.961,20.579,24.391,35.964,8.829,6.996,35.628,30.873,21.322,13.780,34.569,19.188,31.235,21.454,12.708,-2.518,12.519
2019.07.22 14:01:21.420,25.832,22.603,17.924,15.776,22.376,29.896,8.874,5.396,33.046,24.198,21.708,13.123,33.715,15.607,31.119,17.901,11.087,-2.185,13.001
2019.07.22 14:01:21.424,18.377,16.309,16.259,11.849,19.925,23.860,9.007,3.643,28.962,17.711,21.911,11.483,31.481,11.708,30.751,12.491,9.928,-1.476,13.003
2019.07.22 14:01:21.428,8.806,10.685,14.636,9.885,16.671,19.196,8.304,3.195,23.819,14.401,20.988,10.376,27.422,9.553,29.480,8.430,9.053,-0.959,12.539
2019.07.22 14:01:21.432,0.331,5.896,12.459,9.228,12.336,15.830,6.086,3.856,18.446,14.261,18.502,10.468,22.076,9.794,26.656,7.501,7.588,-1.174,11.918
2019.07.22 14:01:21.436,-4.939,1.347,9.195,8.179,6.931,12.690,2.312,4.221,13.561,14.668,14.755,11.200,16.428,11.390,21.870,8.730,4.653,-2.175,11.414
2019.07.22 14:01:21.440,-7.214,-3.518,4.713,5.406,0.816,8.722,-2.395,3.033,9.355,12.643,10.541,11.408,11.072,12.568,15.267,9.252,0.129,-3.375,10.947
2019.07.22 14:01:21.444,-8.460,-8.521,-0.497,0.989,-5.288,3.747,-7.096,0.290,5.528,7.163,6.632,10.378,5.902,12.239,7.829,6.754,-5.074,-3.839,10.092
2019.07.22 14:01:21.448,-10.542,-12.704,-5.350,-3.619,-10.399,-1.427,-10.998,-2.806,1.730,-0.215,3.354,8.429,0.540,10.752,1.256,1.513,-9.454,-2.871,8.422
2019.07.22 14:01:21.452,-13.630,-14.949,-8.545,-6.626,-13.544,-5.621,-13.758,-4.943,-1.971,-6.738,0.536,6.559,-4.966,9.404,-2.756,-3.658,-11.757,-0.497,5.876
2019.07.22 14:01:21.456,-16.161,-14.783,-9.178,-7.112,-14.214,-8.093,-15.433,-5.831,-5.011,-10.549,-2.200,5.463,-9.891,9.137,-3.552,-5.582,-11.616,2.510,2.860
2019.07.22 14:01:21.460,-16.325,-12.734,-7.263,-5.522,-12.708,-8.911,-16.206,-6.392,-6.716,-11.791,-5.032,4.799,-13.289,9.517,-2.142,-3.304,-9.572,5.080,0.001
2019.07.22 14:01:21.464,-13.745,-9.976,-3.779,-3.140,-10.076,-8.664,-16.102,-7.855,-6.836,-11.944,-7.701,3.353,-14.735,8.832,-0.768,0.958,-6.526,6.480,-2.209
2019.07.22 14:01:21.468,-9.883,-7.539,-0.136,-1.031,-7.550,-7.823,-14.945,-10.561,-5.747,-12.193,-9.578,-0.006,-14.628,5.301,-1.498,3.299,-3.098,6.696,-3.589
2019.07.22 14:01:21.472,-6.819,-5.658,2.647,0.708,-5.799,-6.322,-12.572,-13.514,-4.152,-12.331,-9.981,-5.322,-13.759,-1.512,-4.754,0.896,0.630,6.325,-4.192
2019.07.22 14:01:21.476,-5.455,-3.743,4.518,2.833,-4.526,-3.701,-9.096,-15.069,-2.493,-11.127,-8.515,-11.308,-12.507,-10.109,-8.866,-6.006,4.851,6.062,-4.117
2019.07.22 14:01:21.480,-4.707,-0.938,6.301,6.140,-2.760,0.335,-4.999,-14.164,-0.569,-7.703,-5.267,-16.057,-10.421,-17.723,-11.086,-14.318,9.563,6.187,-3.434
2019.07.22 14:01:21.484,-2.414,3.182,9.008,10.658,0.351,5.457,-0.948,-11.040,2.316,-2.570,-0.770,-18.130,-6.603,-21.756,-9.397,-20.206,14.328,6.409,-2.282
2019.07.22 14:01:21.488,2.782,8.292,13.040,15.518,4.832,10.775,2.525,-6.869,6.752,2.691,4.198,-17.231,-0.610,-21.025,-3.838,-21.423,18.475,6.167,-0.973
2019.07.22 14:01:21.492,10.152,13.576,17.863,19.603,9.811,15.415,5.242,-2.635,12.632,6.817,8.877,-14.053,6.896,-16.103,3.610,-18.221,21.580,5.146,0.079
2019.07.22 14:01:21.496,17.284,18.323,22.364,22.435,14.141,19.161,7.349,1.713,19.022,10.042,12.723,-9.585,14.355,-8.705,10.435,-12.497,23.802,3.605,0.609
2019.07.22 14:01:21.500,21.861,22.381,25.595,24.590,17.216,22.602,9.085,7.071,24.615,13.894,15.511,-4.506,20.231,-0.711,15.191,-6.165,25.779,2.274,0.722
2019.07.22 14:01:21.504,23.370,26.139,27.325,27.272,19.317,26.625,10.543,14.086,28.430,19.700,17.307,0.870,23.927,6.540,18.101,-0.132,28.148,1.879,0.849
2019.07.22 14:01:21.508,23.319,30.069,28.016,31.356,21.223,31.597,11.602,22.099,30.264,27.075,18.336,6.242,25.945,12.411,20.356,5.547,31.044,2.639,1.423
2019.07.22 14:01:21.512,23.826,34.170,28.300,36.617,23.382,36.843,12.018,29.100,30.564,33.790,18.795,11.069,27.192,16.737,22.800,10.863,33.916,4.079,2.526
2019.07.22 14:01:21.516,25.711,37.710,28.398,41.699,25.330,40.862,11.559,32.865,29.880,37.244,18.704,14.765,28.026,19.589,25.147,15.372,35.801,5.289,3.818
2019.07.22 14:01:21.520,27.665,39.472,27.936,44.851,25.821,42.146,10.050,32.459,28.328,36.382,17.887,17.218,27.855,21.179,26.294,18.469,35.829,5.443,4.818
2019.07.22 14:01:21.524,27.190,38.370,26.260,44.912,23.611,40.089,7.346,28.969,25.503,32.461,16.113,19.099,25.620,21.865,25.353,20.015,33.658,4.266,5.317
2019.07.22 14:01:21.528,22.580,34.098,22.982,41.890,18.340,35.361,3.367,24.858,20.926,28.011,13.332,21.547,20.746,22.082,22.447,20.509,29.633,2.158,5.554
2019.07.22 14:01:21.532,14.451,27.471,18.350,36.836,10.923,29.550,-1.732,22.385,14.657,24.868,9.828,25.346,13.804,22.158,18.612,20.561,24.655,-0.034,5.990
2019.07.22 14:01:21.536,5.659,20.241,13.232,31.205,3.206,24.337,-7.343,22.221,7.610,22.941,6.183,30.197,6.357,22.186,14.971,20.204,19.901,-1.432,6.866
2019.07.22 14:01:21.540,-0.326,14.433,8.772,26.180,-2.846,20.734,-12.373,23.205,1.276,20.732,3.023,34.689,0.132,22.071,11.955,18.851,16.497,-1.483,7.926
2019.07.22 14:01:21.544,-1.432,11.476,5.974,22.350,-5.952,18.808,-15.558,23.326,-2.995,17.070,0.733,37.050,-3.833,21.733,9.245,16.101,15.215,-0.122,8.545
2019.07.22 14:01:21.548,1.942,11.557,5.382,19.785,-5.921,17.920,-16.054,21.167,-4.678,12.468,-0.688,36.157,-5.496,21.243,6.396,12.666,16.215,2.284,8.167
2019.07.22 14:01:21.552,7.365,13.533,6.926,18.281,-3.560,17.232,-13.944,16.771,-4.284,8.840,-1.509,32.095,-5.473,20.711,3.500,10.332,18.926,5.106,6.696
2019.07.22 14:01:21.556,11.844,15.537,9.913,17.538,-0.248,16.143,-10.293,11.438,-2.961,7.801,-2.000,25.928,-4.449,19.986,1.249,10.667,22.178,7.659,4.529
2019.07.22 14:01:21.560,13.331,15.984,13.193,17.210,2.630,14.476,-6.638,6.758,-1.781,9.051,-2.205,18.964,-2.835,18.491,0.349,13.369,24.624,9.379,2.255
2019.07.22 14:01:21.564,11.436,14.445,15.537,16.923,4.187,12.454,-4.196,3.638,-1.184,10.375,-1.931,12.127,-0.816,15.461,0.857,15.773,25.303,9.948,0.292
2019.07.22 14:01:21.568,7.226,11.850,16.169,16.394,4.354,10.562,-3.276,1.979,-0.900,9.380,-0.927,5.874,1.412,10.561,2.094,14.335,24.043,9.351,-1.225
2019.07.22 14:01:21.572,2.509,9.878,15.200,15.586,3.877,9.378,-3.256,1.070,-0.319,5.587,0.907,0.539,3.576,4.448,3.225,7.290,21.486,7.827,-2.287
2019.07.22 14:01:21.576,-0.897,9.912,13.652,14.774,3.954,9.384,-3.105,0.264,1.010,1.074,3.448,-3.361,5.522,-1.207,3.999,-3.493,18.707,5.759,-2.793
2019.07.22 14:01:21.580,-1.676,12.221,12.920,14.409,5.626,10.792,-2.054,-0.571,3.127,-0.936,6.459,-5.254,7.446,-4.428,4.964,-13.114,16.685,3.535,-2.539
2019.07.22 14:01:21.584,0.689,15.905,13.942,14.854,9.210,13.450,0.018,-1.070,5.766,1.529,9.729,-4.974,9.845,-3.976,6.938,-16.574,15.918,1.471,-1.445
2019.07.22 14:01:21.588,5.760,19.591,16.573,16.178,14.086,16.893,2.685,-0.705,8.646,7.732,13.111,-3.099,13.124,-0.071,10.193,-12.095,16.387,-0.198,0.231
2019.07.22 14:01:21.592,12.194,22.319,19.627,18.158,18.970,20.535,5.372,0.866,11.642,14.838,16.422,-0.749,17.129,5.736,14.059,-2.395,17.735,-1.304,1.949
2019.07.22 14:01:21.596,18.110,23.986,21.590,20.460,22.496,23.863,7.709,3.626,14.672,20.027,19.322,1.102,20.999,11.448,17.299,7.090,19.487,-1.770,3.230
2019.07.22 14:01:21.600,21.746,25.057,21.540,22.809,23.748,26.520,9.587,7.212,17.427,22.359,21.357,2.269,23.497,15.672,18.934,11.787,21.125,-1.677,4.023
2019.07.22 14:01:21.604,22.139,25.864,19.634,25.000,22.490,28.251,10.971,11.013,19.221,22.928,22.165,3.418,23.652,18.128,18.830,10.803,22.082,-1.317,4.768
2019.07.22 14:01:21.608,19.445,26.133,16.857,26.765,19.059,28.821,11.702,14.301,19.208,23.398,21.702,5.442,21.250,19.353,17.597,7.001,21.789,-1.106,6.065
2019.07.22 14:01:21.612,14.708,25.141,14.260,27.655,14.155,28.068,11.516,16.409,16.878,24.338,20.276,8.646,16.889,19.937,15.943,4.481,19.863,-1.385,8.204
2019.07.22 14:01:21.616,9.224,22.353,12.273,27.114,8.678,26.071,10.254,16.973,12.527,24.840,18.315,12.378,11.607,19.945,14.101,5.485,16.324,-2.200,10.922
2019.07.22 14:01:21.620,3.913,17.957,10.583,24.729,3.637,23.279,8.087,16.123,7.314,23.681,16.066,15.436,6.387,18.965,11.805,9.084,11.650,-3.249,13.589
2019.07.22 14:01:21.624,-0.913,12.817,8.602,20.496,-0.031,20.404,5.534,14.448,2.811,20.831,13.470,16.904,1.872,16.658,8.786,12.410,6.568,-4.062,15.615
2019.07.22 14:01:21.628,-5.285,7.869,6.096,14.897,-1.772,18.072,3.256,12.691,0.268,17.819,10.366,16.739,-1.626,13.299,5.290,13.217,1.716,-4.308,16.746
2019.07.22 14:01:21.632,-9.097,3.504,3.478,8.751,-1.703,16.460,1.762,11.287,0.050,16.533,6.861,15.636,-3.952,9.786,2.123,11.606,-2.561,-3.996,16.999
2019.07.22 14:01:21.636,-11.817,-0.502,1.546,2.963,-0.603,15.233,1.227,10.068,1.565,17.466,3.536,14.300,-4.998,7.088,0.180,9.605,-6.141,-3.416,16.395
2019.07.22 14:01:21.640,-12.676,-4.440,0.909,-1.699,0.512,13.861,1.505,8.354,3.680,19.019,1.244,12.751,-4.768,5.557,-0.144,9.149,-8.896,-2.859,14.788
2019.07.22 14:01:21.644,-11.240,-8.037,1.531,-4.727,0.997,12.087,2.261,5.413,5.325,18.589,0.592,10.271,-3.502,4.671,0.826,10.286,-10.570,-2.361,12.037
2019.07.22 14:01:21.648,-7.988,-10.387,2.716,-5.971,0.899,10.146,3.087,1.004,5.895,14.632,1.487,6.064,-1.719,3.433,2.329,11.132,-10.977,-1.710,8.368
2019.07.22 14:01:21.652,-4.390,-10.622,3.494,-5.732,0.730,8.534,3.576,-4.370,5.311,8.030,3.138,0.105,-0.059,1.139,3.697,9.563,-10.338,-0.706,4.559
2019.07.22 14:01:21.656,-2.313,-8.786,3.152,-4.766,0.867,7.541,3.395,-9.650,3.831,1.625,4.558,-6.521,1.007,-2.039,4.703,5.172,-9.420,0.533,1.675
2019.07.22 14:01:21.660,-2.959,-6.084,1.602,-4.035,1.120,7.000,2.440,-13.732,1.890,-1.706,5.228,-12.083,1.435,-5.065,5.545,-0.160,-9.179,1.535,0.465
2019.07.22 14:01:21.664,-5.952,-4.131,-0.566,-4.193,0.913,6.552,1.011,-15.940,0.066,-0.887,5.437,-15.162,1.679,-6.603,6.603,-3.555,-10.063,1.771,0.869
2019.07.22 14:01:21.668,-9.235,-3.677,-2.313,-5.075,-0.026,6.221,-0.161,-16.218,-0.891,2.986,6.019,-15.412,2.501,-5.740,8.214,-3.217,-11.490,1.088,2.047
2019.07.22 14:01:21.672,-10.007,-3.842,-2.563,-5.618,-1.082,6.746,-0.158,-14.991,-0.193,7.820,7.695,-13.607,4.593,-2.443,10.571,0.329,-12.015,-0.104,2.956
2019.07.22 14:01:21.676,-6.311,-2.617,-0.667,-4.432,-0.906,9.183,1.652,-12.874,2.619,12.093,10.495,-11.033,8.155,2.459,13.641,4.766,-10.230,-1.084,3.054
2019.07.22 14:01:21.680,1.643,1.594,3.244,-0.779,1.646,13.960,5.180,-10.441,7.258,15.473,13.692,-8.698,12.654,7.630,17.024,7.744,-5.819,-1.344,2.602
2019.07.22 14:01:21.684,11.295,8.522,8.196,4.715,6.451,20.083,9.545,-8.132,12.574,18.165,16.272,-6.940,16.913,11.697,19.847,8.438,0.010,-0.975,2.354
2019.07.22 14:01:21.688,18.971,15.841,12.716,10.228,11.834,25.300,13.468,-6.237,16.950,19.884,17.565,-5.569,19.570,13.666,20.954,7.777,5.133,-0.583,2.925
2019.07.22 14:01:21.692,21.861,20.525,15.469,13.806,15.437,27.332,15.923,-4.850,19.064,19.652,17.581,-4.293,19.720,13.240,19.468,7.340,7.790,-0.787,4.339
2019.07.22 14:01:21.696,19.554,20.827,15.876,14.637,15.678,25.399,16.632,-3.827,18.587,16.721,16.848,-3.006,17.399,10.982,15.450,7.958,7.647,-1.687,6.097
2019.07.22 14:01:21.700,14.102,17.432,14.296,13.579,12.741,20.894,16.077,-2.831,16.322,11.761,15.927,-1.730,13.596,8.188,10.124,9.157,5.865,-2.756,7.649
2019.07.22 14:01:21.704,8.584,12.908,11.662,12.494,8.339,16.585,15.036,-1.556,13.694,7.017,15.024,-0.390,9.735,6.401,5.338,9.747,4.126,-3.273,8.827
2019.07.22 14:01:21.708,5.113,9.875,8.793,12.811,4.431,14.801,13.983,-0.024,11.907,5.012,13.942,1.284,6.923,6.665,2.513,8.958,3.373,-2.939,9.865
2019.07.22 14:01:21.712,3.687,9.281,5.930,14.401,1.916,15.911,12.792,1.268,11.334,6.703,12.360,3.556,5.435,8.937,1.810,7.138,3.197,-2.181,11.039
2019.07.22 14:01:21.716,2.629,10.053,2.835,15.643,0.304,18.240,10.939,1.550,11.510,10.620,10.143,6.365,4.791,12.087,2.169,5.542,2.345,-1.860,12.271
2019.07.22 14:01:21.720,0.241,10.290,-0.648,14.682,-1.454,19.481,8.027,0.274,11.664,13.853,7.458,9.190,4.334,14.580,2.245,5.467,-0.118,-2.595,13.082
2019.07.22 14:01:21.724,-3.611,8.973,-4.092,10.915,-3.761,18.522,4.232,-2.420,11.338,14.190,4.654,11.277,3.860,15.451,1.541,7.440,-3.905,-4.239,12.953
2019.07.22 14:01:21.728,-7.227,6.768,-6.546,5.546,-5.850,16.239,0.334,-5.637,10.657,11.740,2.089,12.072,3.804,14.846,0.831,10.967,-7.583,-5.919,11.784
2019.07.22 14:01:21.732,-8.316,5.326,-7.194,0.758,-6.411,14.638,-2.677,-8.192,10.103,8.719,0.076,11.535,4.844,13.716,1.533,14.854,-9.572,-6.648,10.068
2019.07.22 14:01:21.736,-5.818,5.695,-6.078,-1.846,-4.800,15.034,-4.130,-9.339,10.058,7.551,-1.056,10.069,7.266,12.853,4.529,17.781,-9.268,-6.011,8.620
2019.07.22 14:01:21.740,-0.895,7.214,-4.252,-2.333,-1.780,16.764,-3.982,-9.250,10.505,8.845,-0.930,8.168,10.605,12.097,9.396,18.792,-7.449,-4.435,8.074
2019.07.22 14:01:21.744,3.676,7.833,-3.131,-2.188,0.871,17.540,-2.724,-8.880,11.097,10.886,0.723,6.088,13.886,10.445,14.649,17.626,-5.678,-2.836,8.527
2019.07.22 14:01:21.748,5.280,5.665,-3.531,-2.979,1.580,15.209,-1.035,-9.244,11.449,11.065,3.772,3.840,16.241,7.088,18.778,14.873,-5.214,-1.961,9.570
2019.07.22 14:01:21.752,3.105,0.543,-5.152,-5.024,0.019,9.597,0.551,-10.627,11.371,8.075,7.509,1.488,17.396,2.577,21.183,11.875,-6.257,-1.927,10.624
2019.07.22 14:01:21.756,-1.524,-5.630,-6.955,-7.138,-2.837,2.950,1.737,-12.313,10.838,3.117,10.810,-0.563,17.647,-0.970,22.291,10.208,-8.047,-2.293,11.286
2019.07.22 14:01:21.760,-6.237,-10.040,-8.114,-7.637,-5.613,-1.418,2.371,-13.042,9.822,-0.835,12.623,-1.612,17.392,-1.019,22.825,10.851,-9.607,-2.517,11.463
2019.07.22 14:01:21.764,-9.231,-10.749,-8.720,-5.760,-7.567,-1.293,2.349,-11.902,8.235,-1.109,12.538,-1.078,16.697,3.553,22.974,13.444,-10.489,-2.403,11.267
2019.07.22 14:01:21.768,-10.185,-7.834,-9.605,-2.323,-8.873,3.030,1.670,-8.983,6.112,2.865,11.021,1.013,15.310,11.333,22.218,16.295,-10.912,-2.177,10.865
2019.07.22 14:01:21.772,-9.922,-3.117,-11.413,0.897,-10.027,9.088,0.591,-5.294,3.866,9.315,9.152,3.904,13.114,18.953,19.960,17.352,-11.298,-2.175,10.423
2019.07.22 14:01:21.776,-9.305,1.152,-13.760,2.528,-11.036,13.982,-0.322,-1.992,2.286,15.467,7.980,6.497,10.528,23.124,16.319,15.643,-11.686,-2.477,10.160
2019.07.22 14:01:21.780,-8.396,3.636,-15.280,2.601,-11.219,16.171,-0.421,0.478,2.114,19.309,7.918,8.021,8.416,22.749,12.319,12.125,-11.583,-2.815,10.372
2019.07.22 14:01:21.784,-6.570,4.338,-14.647,2.393,-9.842,16.080,0.609,2.673,3.426,20.487,8.547,8.464,7.448,19.537,9.229,9.156,-10.388,-2.821,11.308
2019.07.22 14:01:21.788,-3.392,4.061,-11.755,3.307,-6.998,15.271,2.426,5.613,5.329,19.896,8.944,8.449,7.467,16.661,7.616,8.772,-8.003,-2.373,12.962
2019.07.22 14:01:21.792,0.593,3.525,-8.026,5.746,-3.852,15.035,4.123,9.816,6.337,18.604,8.286,8.635,7.464,16.430,6.956,11.018,-5.091,-1.718,14.959
2019.07.22 14:01:21.796,3.919,2.923,-5.489,8.865,-1.925,15.537,4.748,14.665,5.296,17.102,6.347,9.129,6.304,18.743,6.179,13.674,-2.707,-1.247,16.664
2019.07.22 14:01:21.800,5.099,2.131,-5.281,11.334,-1.975,16.072,3.950,18.620,2.234,15.388,3.585,9.374,3.688,21.452,4.663,13.805,-1.597,-1.137,17.473
2019.07.22 14:01:21.804,3.649,1.178,-6.793,12.380,-3.441,15.971,2.275,20.167,-1.541,13.521,0.802,8.620,0.531,22.276,2.809,10.066,-1.701,-1.167,17.113
2019.07.22 14:01:21.808,0.409,0.392,-8.189,12.215,-4.977,15.263,0.856,18.804,-4.245,11.927,-1.355,6.588,-1.634,20.706,1.681,4.011,-2.265,-0.894,15.732
2019.07.22 14:01:21.812,-3.063,0.053,-7.946,11.550,-5.632,14.519,0.684,15.325,-4.824,11.099,-2.712,3.789,-1.813,18.352,2.036,-0.752,-2.462,-0.035,13.755
2019.07.22 14:01:21.816,-5.521,-0.066,-6.185,10.717,-5.685,14.115,1.944,11.215,-3.683,10.993,-3.540,1.206,-0.351,17.499,3.625,-1.068,-2.051,1.249,11.634
2019.07.22 14:01:21.820,-6.661,-0.744,-4.691,9.239,-6.380,13.680,3.906,7.617,-2.400,10.806,-4.221,-0.424,1.313,19.057,5.408,3.412,-1.543,2.419,9.670
2019.07.22 14:01:21.824,-6.976,-2.760,-5.565,6.278,-8.779,12.294,5.424,4.687,-2.620,9.459,-4.906,-1.155,1.767,21.644,6.487,9.854,-1.787,2.925,7.995
2019.07.22 14:01:21.828,-7.098,-6.173,-9.523,1.568,-12.727,9.296,5.680,1.809,-4.954,6.480,-5.398,-1.749,0.731,22.579,6.898,14.193,-3.279,2.602,6.652
2019.07.22 14:01:21.832,-7.297,-10.090,-15.181,-4.014,-16.849,5.004,4.619,-1.553,-8.681,2.521,-5.372,-2.989,-0.794,20.037,7.505,13.988,-5.725,1.792,5.660
2019.07.22 14:01:21.836,-7.544,-13.190,-19.881,-8.772,-19.610,0.670,2.805,-5.095,-12.416,-0.954,-4.733,-4.917,-1.441,14.636,9.052,10.054,-8.178,1.125,5.020
2019.07.22 14:01:21.840,-7.946,-14.665,-21.422,-11.230,-20.548,-2.328,0.894,-7.651,-15.176,-2.633,-3.845,-6.633,-0.710,9.161,11.232,5.651,-9.621,1.129,4.669
2019.07.22 14:01:21.844,-8.981,-14.802,-19.416,-11.061,-20.610,-3.434,-0.822,-7.968,-16.985,-2.245,-3.404,-6.869,0.545,6.586,12.646,3.906,-9.601,1.943,4.479
2019.07.22 14:01:21.848,-11.163,-14.700,-15.335,-9.198,-21.282,-3.233,-2.427,-5.667,-18.590,-0.691,-3.998,-4.952,0.810,7.912,11.808,5.457,-8.476,3.286,4.315
2019.07.22 14:01:21.852,-14.359,-15.313,-11.369,-7.075,-23.233,-2.899,-4.012,-1.633,-20.589,0.649,-5.656,-1.417,-0.777,11.489,8.394,8.117,-7.154,4.663,4.109
2019.07.22 14:01:21.856,-17.431,-16.572,-9.060,-5.644,-25.634,-3.227,-5.347,2.495,-22.762,0.920,-7.727,2.236,-3.611,14.339,3.690,8.749,-6.531,5.611,3.885
2019.07.22 14:01:21.860,-18.714,-17.333,-8.663,-4.936,-26.736,-4.022,-5.937,5.331,-24.162,0.355,-9.215,4.542,-6.016,14.463,-0.190,5.867,-7.001,5.854,3.736
2019.07.22 14:01:21.864,-17.122,-16.208,-9.510,-4.429,-25.249,-4.317,-5.463,6.499,-23.875,0.061,-9.384,5.117,-6.526,12.350,-1.707,0.941,-8.326,5.319,3.788
2019.07.22 14:01:21.868,-13.092,-12.673,-10.778,-3.773,-21.385,-3.200,-4.176,6.599,-21.777,1.205,-8.210,4.946,-5.016,10.576,-0.830,-2.563,-9.887,4.092,4.175
2019.07.22 14:01:21.872,-8.524,-7.581,-11.960,-3.212,-16.721,-0.598,-2.844,6.502,-18.646,4.193,-6.355,5.653,-2.726,11.807,1.177,-1.670,-11.103,2.372,5.024
2019.07.22 14:01:21.876,-5.635,-2.698,-12.780,-3.339,-13.034,2.554,-2.190,6.589,-15.560,8.312,-4.693,8.233,-1.197,16.714,2.834,3.937,-11.745,0.448,6.393
2019.07.22 14:01:21.880,-5.474,0.354,-12.904,-4.468,-11.104,4.852,-2.279,6.552,-13.139,12.014,-3.729,12.164,-1.044,23.320,3.435,11.602,-11.969,-1.356,8.166
2019.07.22 14:01:21.884,-7.230,0.944,-11.980,-6.255,-10.443,5.198,-2.430,5.841,-11.290,13.634,-3.373,15.602,-1.637,28.219,3.165,17.378,-12.118,-2.764,10.002
2019.07.22 14:01:21.888,-8.888,-0.513,-10.075,-7.916,-10.084,3.293,-1.800,4.290,-9.661,12.179,-3.204,16.582,-1.923,28.749,2.447,18.468,-12.441,-3.654,11.418
2019.07.22 14:01:21.892,-8.785,-3.198,-8.032,-8.860,-9.660,-0.389,-0.217,2.340,-8.307,7.848,-2.984,14.408,-1.628,24.602,1.274,14.773,-12.940,-4.093,12.030
2019.07.22 14:01:21.896,-6.921,-6.577,-7.193,-9.139,-9.779,-4.971,1.477,0.653,-7.896,2.029,-2.951,10.228,-1.698,17.861,-0.735,8.663,-13.407,-4.276,11.799
2019.07.22 14:01:21.900,-4.996,-10.547,-8.475,-9.298,-11.376,-9.552,1.959,-0.517,-9.154,-3.256,-3.603,6.342,-3.491,11.562,-3.618,3.334,-13.608,-4.393,11.087
2019.07.22 14:01:21.904,-5.153,-14.985,-11.488,-9.771,-14.655,-13.385,0.496,-1.606,-12.013,-6.297,-5.151,4.692,-7.364,7.837,-6.462,0.934,-13.438,-4.507,10.429
2019.07.22 14:01:21.908,-8.341,-19.237,-14.516,-10.406,-18.613,-15.945,-2.319,-3.406,-15.273,-6.585,-7.128,5.559,-11.907,6.854,-7.672,1.608,-12.972,-4.517,10.154
2019.07.22 14:01:21.912,-13.555,-22.159,-15.590,-10.620,-21.636,-17.036,-4.836,-6.388,-17.229,-5.135,-8.559,7.401,-14.633,7.067,-6.095,3.846,-12.376,-4.236,10.135
2019.07.22 14:01:21.916,-18.488,-22.802,-13.968,-10.109,-22.726,-16.953,-5.546,-10.265,-16.912,-3.951,-8.652,7.919,-13.710,6.454,-2.118,5.693,-11.804,-3.531,9.883
2019.07.22 14:01:21.920,-21.113,-21.229,-10.853,-9.476,-22.318,-16.491,-4.284,-14.201,-14.943,-4.856,-7.474,5.619,-9.431,3.826,2.258,5.945,-11.350,-2.449,8.929
2019.07.22 14:01:21.924,-20.984,-18.705,-8.692,-10.130,-21.974,-16.619,-2.468,-17.475,-13.238,-8.366,-6.027,0.773,-4.195,-0.575,4.605,4.641,-11.102,-1.250,7.216
2019.07.22 14:01:21.928,-19.331,-16.971,-9.460,-13.353,-23.149,-17.893,-2.082,-20.019,-13.635,-13.347,-5.585,-4.846,-0.941,-5.442,3.686,2.673,-11.181,-0.306,5.191
2019.07.22 14:01:21.932,-17.964,-17.067,-13.187,-19.168,-26.008,-19.971,-4.149,-22.335,-16.462,-17.710,-6.742,-9.188,-1.171,-9.364,0.251,0.884,-11.700,0.087,3.519
2019.07.22 14:01:21.936,-17.878,-18.594,-17.841,-25.924,-29.243,-21.674,-7.880,-24.833,-20.150,-19.716,-8.918,-11.192,-4.057,-11.725,-3.620,-0.701,-12.619,-0.088,2.654
2019.07.22 14:01:21.940,-18.657,-20.035,-20.696,-31.036,-31.036,-21.669,-11.216,-27.180,-22.302,-18.976,-10.738,-11.205,-7.245,-12.965,-6.090,-2.948,-13.624,-0.500,2.588
2019.07.22 14:01:21.944,-19.039,-19.950,-20.170,-32.494,-30.413,-19.388,-12.359,-28.269,-21.422,-16.501,-11.017,-10.346,-8.683,-14.084,-6.814,-6.864,-14.194,-0.591,2.957
2019.07.22 14:01:21.948,-18.114,-18.116,-16.789,-30.113,-27.920,-15.533,-11.097,-26.934,-18.024,-13.808,-9.611,-9.411,-8.012,-15.749,-6.884,-12.490,-13.870,0.115,3.381
2019.07.22 14:01:21.952,-16.134,-15.730,-12.622,-25.638,-25.139,-11.754,-8.868,-22.880,-14.242,-11.812,-7.455,-8.230,-6.505,-17.609,-7.614,-18.238,-12.578,1.696,3.726
2019.07.22 14:01:21.956,-14.298,-14.464,-9.705,-21.619,-23.476,-9.636,-7.519,-17.097,-12.228,-10.322,-5.778,-5.947,-5.744,-18.346,-9.245,-21.349,-10.745,3.704,4.101
2019.07.22 14:01:21.960,-13.721,-15.083,-8.679,-19.803,-23.181,-9.679,-7.789,-11.347,-12.566,-8.455,-5.133,-1.965,-6.196,-16.484,-10.668,-19.457,-9.070,5.355,4.628
2019.07.22 14:01:21.964,-14.473,-16.724,-8.634,-20.142,-23.336,-10.964,-8.744,-7.092,-13.886,-5.564,-5.023,3.277,-6.856,-11.475,-10.362,-12.336,-8.060,5.945,5.256
2019.07.22 14:01:21.968,-15.458,-17.422,-8.109,-21.018,-22.720,-11.740,-8.641,-4.607,-13.941,-1.879,-4.405,8.361,-6.163,-4.295,-7.693,-2.579,-7.668,5.261,5.805
2019.07.22 14:01:21.972,-15.231,-15.533,-6.375,-20.454,-20.810,-10.549,-6.463,-2.940,-11.284,1.621,-2.642,11.794,-3.349,2.942,-3.468,5.561,-7.319,3.687,6.204
2019.07.22 14:01:21.976,-13.080,-10.971,-3.960,-17.427,-18.123,-7.095,-2.861,-0.689,-6.265,3.959,-0.098,13.069,0.919,8.198,0.707,8.671,-6.336,1.960,6.678
2019.07.22 14:01:21.980,-9.522,-5.326,-2.093,-12.415,-15.699,-2.308,0.308,2.983,-0.671,4.891,2.103,13.066,5.068,10.743,3.661,6.418,-4.467,0.712,7.654
2019.07.22 14:01:21.984,-5.882,-0.755,-1.638,-6.934,-14.233,2.373,1.472,7.826,3.593,5.052,2.959,13.447,7.800,11.516,5.424,1.886,-2.102,0.140,9.437
2019.07.22 14:01:21.988,-3.334,1.511,-2.405,-2.530,-13.571,5.934,0.626,12.759,5.699,5.429,2.360,15.473,8.899,12.297,6.902,-0.434,-0.001,0.007,11.918
2019.07.22 14:01:21.992,-2.192,1.921,-3.338,0.036,-12.948,8.271,-0.641,16.589,6.116,6.634,1.138,19.114,9.055,14.240,8.825,2.248,1.265,-0.061,14.575
2019.07.22 14:01:21.996,-1.931,2.087,-3.333,0.924,-11.676,9.944,-0.399,18.602,5.853,8.514,0.389,23.054,9.005,16.870,10.968,9.002,1.737,-0.245,16.793
2019.07.22 14:01:22.000,-1.791,3.445,-1.965,0.749,-9.684,11.499,2.117,18.674,5.548,10.330,0.655,25.564,8.839,18.344,12.336,15.779,2.014,-0.420,18.238
2019.07.22 14:01:22.004,-1.366,6.146,0.399,0.010,-7.461,12.953,5.970,16.962,5.194,11.295,1.626,25.553,8.122,16.864,12.146,18.295,2.768,-0.326,18.977
2019.07.22 14:01:22.008,-0.689,9.032,3.063,-1.133,-5.513,13.848,9.332,13.616,4.652,11.043,2.566,23.077,6.646,12.217,10.676,15.129,4.217,0.155,19.252
2019.07.22 14:01:22.012,0.131,10.662,5.519,-2.645,-3.868,13.811,10.923,8.776,4.299,9.776,3.009,19.045,5.036,6.251,9.182,8.768,5.959,0.884,19.127
2019.07.22 14:01:22.016,1.237,10.527,7.570,-4.275,-2.087,13.097,10.878,2.834,5.065,8.101,3.097,14.477,4.526,1.852,8.880,3.791,7.281,1.584,18.348
2019.07.22 14:01:22.020,2.895,9.465,9.062,-5.468,0.224,12.626,10.404,-3.392,7.678,6.748,3.279,9.948,5.990,1.086,9.865,3.538,7.684,2.090,16.559
2019.07.22 14:01:22.024,5.006,8.944,9.635,-5.659,2.843,13.398,10.598,-8.814,11.760,6.308,3.688,5.587,9.049,3.834,10.914,7.724,7.205,2.481,13.705
2019.07.22 14:01:22.028,6.779,9.776,8.868,-4.713,4.886,15.698,11.532,-12.502,15.657,6.996,3.830,1.481,12.079,7.894,10.412,12.733,6.326,2.987,10.255
2019.07.22 14:01:22.032,7.064,11.313,6.772,-3.127,5.388,18.699,12.354,-14.063,17.353,8.473,2.905,-1.987,13.244,10.451,7.672,14.292,5.579,3.765,7.019
2019.07.22 14:01:22.036,5.217,11.778,4.167,-1.806,4.132,20.806,12.254,-13.664,15.872,9.831,0.537,-4.230,11.793,9.863,3.577,10.486,5.206,4.766,4.684
2019.07.22 14:01:22.040,1.840,9.524,2.445,-1.530,2.013,20.569,11.344,-11.731,12.075,9.912,-2.742,-4.886,8.591,6.531,0.015,2.919,5.110,5.800,3.413
2019.07.22 14:01:22.044,-1.363,4.294,2.741,-2.512,0.573,17.563,10.599,-8.606,8.133,7.929,-5.714,-4.169,5.444,2.366,-1.464,-4.645,5.061,6.726,2.836
2019.07.22 14:01:22.048,-2.680,-2.452,5.045,-4.357,0.932,12.631,10.885,-4.487,5.994,4.078,-7.284,-2.765,3.739,-0.621,-0.706,-8.972,4.894,7.546,2.414
2019.07.22 14:01:22.052,-1.708,-8.379,7.963,-6.415,2.863,7.364,11.934,0.337,5.965,-0.349,-7.238,-1.318,3.469,-1.519,1.067,-9.287,4.520,8.289,1.870
2019.07.22 14:01:22.056,0.152,-11.681,9.432,-8.210,4.746,3.186,12.259,5.226,6.517,-3.565,-6.352,0.054,3.406,-0.755,2.276,-7.212,3.784,8.802,1.356
2019.07.22 14:01:22.060,0.553,-12.054,7.977,-9.605,4.544,0.674,10.203,9.263,5.481,-4.314,-5.748,1.789,2.222,0.609,2.166,-5.083,2.422,8.692,1.243
2019.07.22 14:01:22.064,-2.118,-10.628,3.684,-10.589,1.197,-0.484,5.338,11.711,1.751,-2.638,-6.037,4.404,-0.353,1.806,1.236,-4.187,0.263,7.556,1.771
2019.07.22 14:01:22.068,-7.468,-9.017,-1.806,-10.920,-4.522,-0.950,-0.942,12.559,-3.806,0.215,-6.906,7.924,-3.294,2.833,0.680,-4.237,-2.446,5.374,2.854
2019.07.22 14:01:22.072,-13.212,-8.238,-6.276,-10.029,-10.339,-1.115,-6.165,12.690,-8.916,2.719,-7.457,11.740,-5.100,4.229,1.383,-4.179,-4.914,2.711,4.202
2019.07.22 14:01:22.076,-16.666,-8.250,-8.246,-7.363,-13.836,-0.856,-8.359,13.464,-11.507,4.156,-6.978,15.076,-4.996,6.524,3.291,-3.337,-6.136,0.492,5.615
2019.07.22 14:01:22.080,-16.549,-8.312,-7.743,-2.988,-13.963,0.174,-7.295,15.906,-11.127,5.045,-5.516,17.686,-3.535,9.836,5.567,-1.822,-5.548,-0.579,7.168
2019.07.22 14:01:22.084,-13.774,-7.740,-6.075,2.034,-11.652,2.031,-4.494,20.021,-9.152,6.550,-3.843,20.144,-2.161,13.829,7.285,0.002,-3.542,-0.528,9.103
2019.07.22 14:01:22.088,-10.685,-6.442,-4.842,5.883,-9.129,4.190,-2.077,24.680,-7.683,9.343,-2.889,23.379,-2.126,17.887,8.022,2.221,-1.395,-0.142,11.533
2019.07.22 14:01:22.092,-9.345,-4.869,-4.888,6.826,-8.370,5.754,-1.366,28.143,-8.013,12.817,-3.145,27.729,-3.631,21.252,7.904,5.404,-0.550,-0.438,14.220
2019.07.22 14:01:22.096,-10.170,-3.554,-5.875,4.184,-9.784,5.995,-2.218,28.900,-9.797,15.311,-4.462,32.239,-5.818,23.063,7.234,9.810,-1.688,-1.939,16.610
2019.07.22 14:01:22.100,-11.859,-2.701,-6.673,-1.213,-12.029,4.819,-3.442,26.331,-11.475,15.183,-6.285,34.848,-7.508,22.482,6.126,14.566,-4.262,-4.289,18.117
2019.07.22 14:01:22.104,-12.569,-2.176,-6.232,-7.435,-13.067,2.788,-3.771,20.885,-11.521,11.929,-8.046,33.479,-8.027,19.007,4.526,17.723,-6.833,-6.505,18.420
2019.07.22 14:01:22.108,-11.346,-1.844,-4.310,-12.514,-11.695,0.680,-2.617,13.758,-9.551,6.502,-9.368,27.331,-7.499,12.864,2.503,17.352,-8.012,-7.666,17.579
2019.07.22 14:01:22.112,-8.758,-1.900,-1.632,-15.483,-8.466,-1.075,-0.167,6.355,-6.519,0.622,-10.049,17.505,-6.514,5.117,0.446,12.893,-7.356,-7.518,15.906
2019.07.22 14:01:22.116,-6.350,-2.832,0.553,-16.777,-5.360,-2.664,2.994,-0.206,-3.975,-4.344,-9.991,6.498,-5.577,-2.701,-1.148,5.638,-5.602,-6.559,13.743
2019.07.22 14:01:22.120,-5.491,-5.012,1.193,-17.737,-4.452,-4.667,6.232,-5.350,-3.026,-8.070,-9.272,-3.084,-4.870,-9.293,-2.124,-2.078,-4.128,-5.578,11.328
2019.07.22 14:01:22.124,-6.508,-8.241,0.004,-19.613,-6.532,-7.527,8.918,-9.059,-3.750,-11.070,-8.293,-9.739,-4.418,-14.131,-2.935,-8.339,-4.034,-5.051,8.797
2019.07.22 14:01:22.128,-8.690,-11.651,-2.398,-22.728,-10.604,-11.107,10.364,-11.693,-5.360,-13.894,-7.749,-13.450,-4.361,-17.424,-4.342,-12.596,-5.491,-4.864,6.269
2019.07.22 14:01:22.132,-10.968,-14.104,-4.802,-26.316,-14.553,-14.661,9.978,-13.706,-6.842,-16.455,-8.264,-15.133,-4.915,-19.556,-6.704,-15.421,-7.744,-4.532,3.895
2019.07.22 14:01:22.136,-12.651,-14.833,-5.979,-29.077,-16.472,-17.239,7.710,-15.361,-7.526,-18.046,-9.871,-15.682,-6.004,-20.518,-9.421,-17.427,-9.681,-3.681,1.830
2019.07.22 14:01:22.140,-13.659,-13.901,-5.230,-30.012,-15.717,-18.231,4.420,-16.579,-7.240,-17.995,-11.768,-15.367,-6.947,-19.840,-11.073,-18.418,-10.509,-2.365,0.171
2019.07.22 14:01:22.144,-14.246,-12.134,-2.706,-28.962,-13.072,-17.685,1.695,-17.000,-6.112,-16.344,-12.670,-13.940,-6.639,-17.124,-10.277,-17.561,-10.117,-0.995,-1.051
2019.07.22 14:01:22.148,-14.580,-10.596,0.664,-26.566,-10.038,-16.223,1.007,-16.266,-4.320,-13.964,-11.614,-11.191,-4.258,-12.693,-6.686,-14.377,-8.953,0.028,-1.837
2019.07.22 14:01:22.152,-14.561,-9.951,3.605,-23.740,-7.844,-14.626,2.733,-14.328,-2.038,-11.982,-8.671,-7.396,-0.007,-7.693,-1.367,-9.560,-7.619,0.624,-2.182
2019.07.22 14:01:22.156,-13.954,-10.142,5.110,-21.108,-6.830,-13.390,5.767,-11.587,0.465,-10.985,-4.987,-3.247,4.771,-3.466,3.794,-4.745,-6.494,1.037,-2.093
2019.07.22 14:01:22.160,-12.592,-10.567,4.953,-18.745,-6.509,-12.534,8.123,-8.699,2.761,-10.634,-2.057,0.640,8.318,-0.604,7.266,-1.323,-5.584,1.565,-1.632
2019.07.22 14:01:22.164,-10.470,-10.575,3.817,-16.346,-6.087,-11.733,8.168,-6.170,4.394,-9.979,-0.756,4.159,9.583,1.502,8.788,0.700,-4.631,2.283,-0.926
2019.07.22 14:01:22.168,-7.700,-9.947,2.918,-13.600,-5.026,-10.650,5.623,-4.017,5.137,-8.237,-0.817,7.683,8.909,4.173,9.357,2.712,-3.317,2.976,-0.102
2019.07.22 14:01:22.172,-4.495,-9.003,3.315,-10.477,-3.296,-9.224,1.655,-1.755,5.155,-5.442,-1.176,11.584,7.743,8.309,10.328,6.235,-1.464,3.321,0.789
2019.07.22 14:01:22.176,-1.265,-8.328,5.282,-7.246,-1.296,-7.720,-1.947,1.238,4.929,-2.498,-0.866,15.735,7.570,13.493,12.317,11.390,0.867,3.124,1.795
2019.07.22 14:01:22.180,1.338,-8.298,8.135,-4.263,0.408,-6.534,-3.848,5.203,4.969,-0.614,0.231,19.444,8.869,18.062,14.738,16.418,3.373,2.412,2.972
2019.07.22 14:01:22.184,2.606,-8.768,10.632,-1.746,1.340,-5.888,-3.732,9.704,5.538,-0.512,1.388,21.924,10.886,20.188,16.305,18.822,5.595,1.340,4.268
2019.07.22 14:01:22.188,2.209,-9.126,11.712,0.301,1.293,-5.640,-2.081,13.749,6.559,-1.921,1.729,22.897,12.350,19.170,16.085,17.353,7.083,0.042,5.499
2019.07.22 14:01:22.192,0.554,-8.678,11.097,1.972,0.423,-5.342,0.441,16.258,7.731,-3.672,1.049,22.823,12.535,15.996,14.255,13.268,7.568,-1.414,6.449
2019.07.22 14:01:22.196,-1.309,-7.116,9.375,3.259,-0.775,-4.540,3.413,16.570,8.719,-4.320,0.043,22.505,11.805,12.718,12.007,9.776,7.071,-2.958,7.016
2019.07.22 14:01:22.200,-2.304,-4.765,7.545,3.963,-1.662,-3.115,6.588,14.685,9.284,-2.947,-0.214,22.371,11.228,11.119,10.647,9.898,5.877,-4.456,7.258
2019.07.22 14:01:22.204,-2.063,-2.453,6.350,3.775,-1.771,-1.447,9.574,11.142,9.299,0.281,0.872,22.022,11.624,11.617,10.612,14.249,4.394,-5.730,7.277
2019.07.22 14:01:22.208,-1.169,-1.080,5.866,2.506,-1.109,-0.257,11.744,6.686,8.740,4.124,2.930,20.449,12.838,13.150,11.128,20.359,2.998,-6.684,7.058
2019.07.22 14:01:22.212,-0.662,-1.145,5.604,0.311,-0.185,-0.195,12.569,1.975,7.711,6.852,4.887,16.823,13.854,14.033,10.775,24.109,1.949,-7.369,6.432
2019.07.22 14:01:22.216,-1.136,-2.510,5.003,-2.253,0.322,-1.423,12.102,-2.532,6.499,7.149,5.780,11.256,13.623,13.101,8.530,22.317,1.402,-7.902,5.258
2019.07.22 14:01:22.220,-2.178,-4.514,3.921,-4.421,0.073,-3.487,11.103,-6.529,5.542,4.867,5.455,4.933,11.943,10.328,4.534,14.762,1.444,-8.291,3.659
2019.07.22 14:01:22.224,-2.655,-6.340,2.773,-5.585,-0.618,-5.577,10.584,-9.803,5.276,1.160,4.645,-0.539,9.668,6.590,0.060,4.317,2.066,-8.324,2.104
2019.07.22 14:01:22.228,-1.665,-7.415,2.230,-5.626,-0.948,-7.023,11.087,-12.260,5.919,-2.125,4.391,-4.116,8.106,2.911,-3.263,-4.822,3.101,-7.679,1.153
2019.07.22 14:01:22.232,0.625,-7.611,2.743,-5.012,-0.211,-7.696,12.288,-13.999,7.332,-3.533,5.289,-5.915,8.100,-0.187,-4.382,-9.549,4.213,-6.175,1.056
2019.07.22 14:01:22.236,2.984,-7.179,4.230,-4.525,1.604,-8.029,13.300,-15.309,9.079,-2.872,7.126,-7.000,9.495,-2.776,-3.306,-9.383,5.043,-3.984,1.501
2019.07.22 14:01:22.240,4.006,-6.511,6.133,-4.751,3.701,-8.620,13.407,-16.521,10.643,-1.294,9.104,-8.504,11.363,-5.104,-0.899,-6.256,5.444,-1.588,1.784
2019.07.22 14:01:22.244,3.196,-5.890,7.746,-5.603,4.959,-9.699,12.629,-17.745,11.644,-0.450,10.426,-10.733,12.726,-7.092,1.752,-2.950,5.634,0.497,1.314
2019.07.22 14:01:22.248,1.353,-5.378,8.571,-6.224,4.697,-10.849,11.605,-18.668,11.921,-1.258,10.744,-12.920,13.174,-8.177,3.894,-1.335,6.096,2.018,0.056
2019.07.22 14:01:22.252,-0.074,-4.858,8.472,-5.407,3.145,-11.213,10.909,-18.575,11.462,-3.140,10.215,-13.785,12.945,-7.598,5.265,-1.558,7.236,3.069,-1.444
2019.07.22 14:01:22.256,-0.134,-4.171,7.609,-2.344,1.240,-10.076,10.431,-16.637,10.306,-4.328,9.193,-12.462,12.497,-4.920,5.885,-2.532,9.035,3.909,-2.516
2019.07.22 14:01:22.260,0.884,-3.273,6.279,2.734,-0.094,-7.438,9.396,-12.359,8.501,-3.120,7.912,-9.137,12.013,-0.428,5.796,-3.165,10.981,4.689,-2.914
2019.07.22 14:01:22.264,1.701,-2.320,4.789,8.457,-0.662,-4.166,7.053,-5.953,6.144,0.790,6.384,-4.919,11.257,4.856,5.004,-3.317,12.357,5.328,-3.003
2019.07.22 14:01:22.268,1.040,-1.655,3.422,12.918,-1.141,-1.592,3.453,1.561,3.397,5.858,4.539,-1.101,9.829,9.528,3.627,-3.788,12.709,5.631,-3.398
2019.07.22 14:01:22.272,-1.461,-1.673,2.406,14.666,-2.554,-0.772,-0.383,8.613,0.413,9.525,2.411,1.632,7.539,12.339,2.014,-5.400,12.129,5.511,-4.358
2019.07.22 14:01:22.276,-5.063,-2.594,1.866,13.519,-5.467,-1.854,-3.089,13.640,-2.764,9.824,0.181,3.472,4.538,12.669,0.623,-7.955,11.160,5.093,-5.455
2019.07.22 14:01:22.280,-8.519,-4.240,1.789,10.692,-9.481,-3.954,-3.882,15.671,-6.168,6.676,-1.926,5.090,1.169,10.730,-0.300,-9.975,10.404,4.589,-5.857
2019.07.22 14:01:22.284,-10.818,-5.961,2.077,8.118,-13.389,-5.606,-3.005,14.701,-9.706,1.982,-3.747,6.924,-2.261,7.411,-0.965,-9.560,10.176,4.084,-4.995
2019.07.22 14:01:22.288,-11.504,-6.831,2.692,7.363,-15.831,-5.528,-1.334,11.634,-12.896,-1.564,-5.168,8.731,-5.516,3.830,-1.953,-5.840,10.438,3.449,-3.084
2019.07.22 14:01:22.292,-10.470,-6.072,3.779,8.780,-15.991,-3.285,0.520,7.826,-14.826,-2.122,-6.012,9.730,-8.231,0.819,-3.757,0.048,11.028,2.486,-1.016
2019.07.22 14:01:22.296,-7.656,-3.507,5.610,11.407,-13.874,0.536,2.807,4.445,-14.513,0.274,-5.977,9.205,-9.774,-1.399,-6.287,5.332,11.888,1.177,0.299
2019.07.22 14:01:22.300,-3.089,0.282,8.337,13.643,-10.076,4.687,6.391,1.990,-11.515,3.949,-4.747,7.081,-9.404,-3.138,-8.727,7.257,13.056,-0.215,0.635
2019.07.22 14:01:22.304,2.763,4.236,11.723,14.259,-5.313,7.955,11.830,0.237,-6.383,6.827,-2.223,4.026,-6.748,-4.850,-9.919,4.981,14.426,-1.311,0.592
2019.07.22 14:01:22.308,8.782,7.397,15.116,13.097,-0.089,9.777,18.558,-1.403,-0.538,7.769,1.287,1.019,-2.250,-6.683,-9.079,0.308,15.558,-1.913,1.061
2019.07.22 14:01:22.312,13.583,9.430,17.762,11.054,5.306,10.429,24.894,-3.358,4.436,7.129,5.111,-1.284,2.839,-8.324,-6.341,-3.404,15.817,-2.159,2.435
2019.07.22 14:01:22.316,16.333,10.694,19.279,9.402,10.566,10.714,28.948,-5.555,7.668,6.261,8.471,-2.896,7.022,-9.268,-2.757,-3.544,14.825,-2.365,4.230
