Time,Fp1-CPz,Fp2-CPz,F3-CPz,F4-CPz,F7-CPz,F8-CPz,C3-CPz,C4-CPz,T7-CPz,T8-CPz,P3-CPz,P4-CPz,P7-CPz,P8-CPz,O1-CPz,O2-CPz,Fz-CPz,Cz-CPz,Pz-CPz
2019.07.22 14:02:33.576,1.170,-30.860,-41.600,-49.254,-31.732,-54.173,32.806,17.275,13.927,-19.622,28.459,13.802,-17.907,47.436,-23.797,46.123,-38.763,-33.516,-23.993
2019.07.22 14:02:33.580,29.902,-36.243,-24.182,-38.106,-15.032,-49.007,22.793,6.781,7.130,-26.589,14.465,8.728,-14.771,32.675,-14.964,33.636,-26.086,-19.965,-15.822
2019.07.22 14:02:33.584,61.852,-32.745,1.357,-16.359,6.494,-28.335,5.668,-4.375,-2.899,-24.732,-3.333,2.007,-7.944,9.959,-0.253,12.749,-5.446,-0.786,-3.214
2019.07.22 14:02:33.588,81.370,-26.838,20.057,2.767,21.585,-7.417,-10.155,-10.470,-10.491,-17.663,-15.638,-2.408,-2.011,-7.542,11.572,-4.056,11.715,12.921,5.986
2019.07.22 14:02:33.592,81.828,-24.087,23.371,9.998,24.412,1.248,-17.629,-9.346,-11.365,-10.914,-17.156,-2.281,0.504,-11.206,15.212,-8.159,18.017,15.009,7.148
2019.07.22 14:02:33.596,68.894,-25.727,14.115,5.651,17.689,-4.154,-15.514,-3.504,-5.619,-8.248,-9.688,1.463,0.365,-2.396,11.807,-0.134,14.410,7.833,1.673
2019.07.22 14:02:33.600,55.108,-28.935,2.839,-2.141,9.644,-15.273,-8.388,2.128,2.533,-9.649,-0.091,5.671,0.207,9.577,7.005,11.746,8.061,-0.548,-4.721
2019.07.22 14:02:33.604,50.394,-30.020,-0.927,-4.588,7.542,-21.319,-2.567,3.895,7.981,-12.197,5.022,7.407,1.930,14.943,6.052,18.217,6.065,-2.940,-6.656
2019.07.22 14:02:33.608,55.726,-27.672,4.489,1.102,12.780,-17.457,-1.353,1.768,8.326,-12.807,3.708,5.990,5.121,10.460,9.923,15.606,10.177,1.912,-2.996
2019.07.22 14:02:33.612,64.186,-23.775,12.980,10.565,20.924,-7.505,-3.243,-1.273,5.150,-10.588,-0.864,3.133,7.665,0.785,15.273,7.530,16.437,9.379,2.871
2019.07.22 14:02:33.616,67.676,-21.481,16.754,16.856,26.038,0.404,-4.106,-2.040,2.205,-7.112,-3.801,1.299,7.769,-6.126,17.768,1.050,19.400,13.495,6.209
2019.07.22 14:02:33.620,63.498,-22.456,12.963,16.504,25.454,0.915,-1.182,0.297,2.201,-4.697,-2.632,1.738,5.527,-5.442,15.733,0.848,17.025,11.924,4.772
2019.07.22 14:02:33.624,55.769,-25.606,5.487,12.044,21.291,-4.621,4.522,3.844,4.815,-4.347,1.035,3.731,2.704,1.402,11.154,6.067,12.183,7.368,0.247
2019.07.22 14:02:33.628,51.226,-28.160,0.980,9.309,17.973,-10.132,9.237,5.891,7.353,-5.073,3.330,5.487,1.047,8.766,7.520,11.799,9.845,4.696,-3.559
2019.07.22 14:02:33.632,53.417,-27.964,3.038,12.189,18.267,-10.400,9.768,5.289,7.248,-4.992,1.542,5.730,0.726,11.757,6.658,13.406,12.646,6.593,-3.985
2019.07.22 14:02:33.636,60.095,-25.057,9.523,19.381,21.255,-5.244,6.243,3.296,4.214,-3.089,-3.749,4.614,0.295,9.764,7.337,9.880,18.655,11.468,-1.438
2019.07.22 14:02:33.640,65.541,-21.363,14.964,25.677,23.664,0.954,2.059,2.310,0.347,-0.077,-9.346,3.307,-1.800,6.035,6.704,3.814,23.056,15.144,1.420
2019.07.22 14:02:33.644,65.423,-18.992,15.498,26.373,23.070,3.477,1.216,3.730,-1.702,2.323,-12.054,2.779,-5.545,4.257,3.104,-1.393,22.117,14.553,2.247
2019.07.22 14:02:33.648,60.035,-18.681,11.896,20.999,20.058,1.288,5.292,6.810,-0.816,2.962,-10.931,2.929,-9.049,5.422,-2.252,-4.309,16.047,10.199,0.996
2019.07.22 14:02:33.652,53.520,-19.544,8.255,13.372,17.561,-2.515,12.417,9.398,1.935,2.265,-7.493,2.802,-9.920,7.525,-6.195,-5.896,8.542,5.414,-0.329
2019.07.22 14:02:33.656,50.159,-20.120,7.871,8.268,18.151,-3.822,18.822,9.823,4.430,1.800,-4.072,1.609,-7.202,7.933,-6.207,-7.650,3.665,3.335,0.293
2019.07.22 14:02:33.660,51.047,-19.649,10.175,7.694,21.720,-1.195,21.506,8.228,5.266,2.829,-1.948,-0.404,-2.218,5.970,-2.461,-9.535,2.815,4.338,3.009
2019.07.22 14:02:33.664,53.741,-18.529,11.421,9.815,25.541,3.140,19.883,6.286,4.662,5.118,-0.783,-2.013,2.391,3.403,2.412,-9.762,4.169,6.053,5.992
2019.07.22 14:02:33.668,54.772,-17.740,8.315,11.103,26.548,5.593,15.427,5.653,3.896,7.065,0.469,-1.964,4.650,2.608,5.545,-6.585,4.733,5.711,7.144
2019.07.22 14:02:33.672,52.614,-17.885,1.230,9.587,23.853,4.564,10.010,6.579,4.000,7.041,2.281,0.020,4.628,4.312,6.082,-0.341,2.997,2.621,5.972
2019.07.22 14:02:33.676,48.679,-18.699,-5.887,6.408,19.441,1.834,4.556,7.869,4.952,4.848,4.122,2.999,4.119,7.013,5.609,6.273,-0.053,-1.359,3.981
2019.07.22 14:02:33.680,45.818,-19.310,-8.762,4.554,16.585,0.925,-0.991,8.125,5.993,2.067,5.102,5.531,4.968,8.515,6.506,10.073,-2.164,-3.567,3.291
2019.07.22 14:02:33.684,45.913,-18.903,-6.307,6.141,17.408,4.030,-6.706,7.082,6.589,0.995,4.926,6.744,7.485,8.050,9.756,9.878,-1.956,-2.829,4.751
2019.07.22 14:02:33.688,48.590,-17.217,-1.374,10.631,21.505,10.215,-11.889,5.841,7.030,2.975,4.157,6.907,10.241,6.977,14.058,7.461,-0.023,-0.280,7.229
2019.07.22 14:02:33.692,51.865,-14.590,1.762,15.398,26.531,16.293,-15.276,5.814,8.076,7.364,3.597,7.084,11.331,7.442,16.911,6.121,1.804,1.845,8.650
2019.07.22 14:02:33.696,53.814,-11.741,0.868,17.913,29.989,19.384,-16.028,7.381,10.035,11.875,3.473,8.191,9.971,10.214,16.625,8.016,2.167,2.208,7.801
2019.07.22 14:02:33.700,53.716,-9.544,-2.812,17.584,30.672,18.871,-14.518,9.446,12.172,13.967,3.242,10.193,7.043,13.687,13.514,12.414,1.250,1.347,5.313
2019.07.22 14:02:33.704,51.873,-8.915,-6.213,15.776,28.777,16.239,-12.172,10.282,13.054,12.298,2.196,12.026,4.195,14.960,9.377,16.237,0.336,0.876,2.995
2019.07.22 14:02:33.708,48.612,-10.641,-7.473,14.219,24.951,13.285,-10.495,8.900,11.536,7.309,0.233,12.279,2.331,12.111,5.873,16.410,0.403,1.795,2.206
2019.07.22 14:02:33.712,43.588,-15.063,-7.565,13.358,19.403,10.531,-10.140,5.770,7.544,0.735,-1.968,10.129,0.845,5.774,3.306,12.139,1.114,3.522,2.731
2019.07.22 14:02:33.716,36.060,-21.759,-9.141,12.048,11.905,7.253,-10.754,2.324,2.035,-5.435,-3.531,5.902,-1.720,-1.241,0.844,5.402,1.087,4.480,3.134
2019.07.22 14:02:33.720,25.782,-29.536,-13.778,8.729,2.560,2.878,-11.564,-0.235,-3.726,-9.814,-4.124,0.957,-6.164,-5.919,-2.153,-0.554,-0.866,3.621,2.197
2019.07.22 14:02:33.724,13.639,-36.895,-20.175,2.947,-7.528,-1.767,-12.035,-1.744,-8.861,-11.892,-4.122,-3.010,-11.579,-6.977,-5.032,-3.439,-4.672,1.445,0.121
2019.07.22 14:02:33.728,1.461,-42.708,-24.960,-4.076,-16.419,-4.653,-11.986,-2.866,-12.971,-11.807,-4.057,-4.785,-15.697,-5.320,-6.045,-3.169,-8.995,-0.403,-1.592
2019.07.22 14:02:33.732,-8.809,-46.642,-25.384,-10.215,-22.324,-4.075,-11.196,-4.161,-15.741,-10.017,-3.930,-4.140,-16.421,-2.884,-3.755,-1.364,-12.234,-0.559,-1.454
2019.07.22 14:02:33.736,-15.962,-49.058,-21.585,-13.831,-24.652,-0.126,-9.123,-5.407,-16.647,-7.115,-3.124,-1.774,-13.336,-0.987,1.584,0.279,-13.630,0.907,0.698
2019.07.22 14:02:33.740,-19.874,-50.521,-16.538,-14.664,-24.350,5.221,-5.215,-5.823,-15.260,-3.808,-1.057,1.215,-8.023,0.454,7.907,1.377,-13.622,2.594,3.551
2019.07.22 14:02:33.744,-21.355,-51.397,-13.826,-13.689,-23.345,9.495,0.335,-4.958,-11.909,-0.879,2.040,3.996,-2.956,2.377,12.646,2.989,-13.330,2.973,5.428
2019.07.22 14:02:33.748,-21.758,-51.831,-15.148,-12.249,-23.517,11.395,6.128,-3.342,-7.996,0.989,5.037,6.391,0.114,5.365,14.452,6.514,-13.716,1.580,5.674
2019.07.22 14:02:33.752,-22.515,-51.991,-19.497,-11.222,-25.881,11.387,10.000,-2.203,-5.441,1.474,6.674,8.742,1.068,8.884,13.954,12.273,-15.094,-0.787,5.084
2019.07.22 14:02:33.756,-24.607,-52.170,-24.400,-10.735,-30.316,10.894,10.205,-2.419,-5.499,0.773,6.551,11.361,1.020,11.556,13.009,18.862,-17.186,-2.909,5.046
2019.07.22 14:02:33.760,-28.019,-52.520,-27.885,-10.399,-35.785,10.935,6.504,-3.658,-7.862,-0.451,5.421,13.981,1.115,12.151,13.127,23.743,-19.442,-4.170,6.203
2019.07.22 14:02:33.764,-31.510,-52.636,-29.491,-9.708,-40.788,11.432,0.272,-4.549,-10.847,-1.357,4.468,15.674,1.571,10.478,14.375,24.714,-21.259,-4.839,7.847
2019.07.22 14:02:33.768,-33.079,-51.521,-29.780,-8.326,-43.873,11.643,-6.455,-3.834,-12.610,-1.294,4.215,15.420,1.751,7.532,15.586,21.325,-22.051,-5.493,8.573
2019.07.22 14:02:33.772,-31.115,-48.171,-29.203,-6.219,-44.122,11.150,-12.257,-1.536,-12.461,-0.076,4.060,12.961,1.057,4.912,15.557,15.339,-21.378,-6.272,7.600
2019.07.22 14:02:33.776,-25.576,-42.459,-27.598,-3.715,-41.527,10.405,-16.947,0.895,-11.225,1.963,2.926,9.283,-0.201,3.970,14.142,9.892,-19.233,-6.730,5.557
2019.07.22 14:02:33.780,-18.261,-35.558,-24.757,-1.448,-37.036,10.366,-21.131,1.675,-10.372,4.173,0.442,6.224,-0.803,5.215,12.321,7.763,-16.270,-6.400,4.044
2019.07.22 14:02:33.784,-11.791,-29.434,-21.266,-0.095,-32.140,11.654,-25.264,0.137,-10.673,5.962,-2.420,5.344,0.491,8.179,11.276,9.723,-13.613,-5.457,4.311
2019.07.22 14:02:33.788,-7.918,-25.663,-18.574,0.051,-28.142,14.022,-29.058,-2.676,-11.532,7.122,-3.944,6.824,3.886,11.665,11.342,14.020,-12.228,-4.729,6.213
2019.07.22 14:02:33.792,-6.447,-24.474,-17.994,-0.626,-25.563,16.558,-31.772,-4.816,-11.555,7.908,-3.047,9.246,8.231,14.243,11.790,17.431,-12.247,-4.997,8.321
2019.07.22 14:02:33.796,-5.641,-24.771,-19.517,-1.235,-24.102,18.332,-33.000,-4.982,-9.846,8.774,-0.259,10.542,11.743,14.837,11.584,17.346,-12.857,-6.212,9.093
2019.07.22 14:02:33.800,-3.816,-25.109,-21.596,-1.003,-23.152,18.886,-33.171,-3.536,-6.895,9.925,2.600,9.479,13.214,13.236,10.432,13.548,-12.918,-7.416,8.097
2019.07.22 14:02:33.804,-0.798,-24.777,-22.202,0.095,-22.411,18.247,-33.228,-2.120,-4.273,11.018,3.826,6.600,12.791,10.287,9.169,8.445,-11.852,-7.486,6.288
2019.07.22 14:02:33.808,1.995,-24.073,-20.318,1.252,-22.033,16.684,-33.754,-2.207,-3.361,11.303,3.155,3.858,11.756,7.548,9.117,5.423,-10.041,-6.087,5.137
2019.07.22 14:02:33.812,2.912,-23.597,-16.569,1.463,-22.194,14.611,-34.339,-3.808,-4.174,10.205,1.868,3.195,11.507,6.496,10.967,6.408,-8.390,-3.963,5.398
2019.07.22 14:02:33.816,1.648,-23.306,-12.520,0.379,-22.544,12.691,-33.783,-5.421,-5.271,7.940,1.608,5.122,12.572,7.723,14.114,10.380,-7.431,-2.317,6.537
2019.07.22 14:02:33.820,-0.370,-22.292,-9.327,-1.342,-22.176,11.824,-31.010,-5.282,-4.841,5.661,2.950,8.392,14.367,10.645,17.021,14.057,-6.821,-1.817,7.276
2019.07.22 14:02:33.824,-1.167,-19.595,-7.003,-2.554,-20.309,12.715,-25.938,-2.868,-2.092,4.885,4.965,11.007,15.816,13.964,18.299,14.372,-5.713,-2.130,6.715
2019.07.22 14:02:33.828,0.065,-15.308,-4.893,-2.575,-17.145,15.217,-19.620,0.604,2.128,6.523,6.148,11.751,16.258,16.544,17.640,10.914,-3.694,-2.366,5.095
2019.07.22 14:02:33.832,2.257,-10.904,-2.796,-1.734,-14.079,18.094,-13.594,3.082,5.910,10.181,5.844,11.025,15.902,18.047,15.888,6.418,-1.392,-1.994,3.576
2019.07.22 14:02:33.836,3.408,-8.293,-1.531,-0.994,-12.899,19.665,-9.047,3.241,7.552,14.284,4.876,10.376,15.507,18.871,14.246,4.762,-0.117,-1.381,3.301
2019.07.22 14:02:33.840,2.338,-8.321,-2.313,-0.961,-14.477,19.014,-6.448,1.446,6.531,17.007,4.798,11.139,15.638,19.533,13.340,7.914,-0.773,-1.452,4.526
2019.07.22 14:02:33.844,-0.324,-9.990,-5.483,-1.212,-18.023,16.818,-5.809,-0.633,3.563,17.377,6.426,13.351,16.147,20.089,12.899,14.188,-3.002,-2.805,6.522
2019.07.22 14:02:33.848,-2.780,-11.163,-9.826,-0.616,-21.562,14.978,-7.116,-1.360,-0.115,15.760,8.978,15.810,16.325,20.131,12.252,19.281,-5.356,-5.097,8.233
2019.07.22 14:02:33.852,-3.686,-10.247,-13.239,1.582,-23.335,15.178,-10.405,-0.295,-3.525,13.449,10.625,17.175,15.571,19.340,11.121,19.438,-6.432,-7.268,9.078
2019.07.22 14:02:33.856,-3.209,-7.442,-14.260,4.892,-23.018,17.524,-15.374,1.710,-6.235,11.691,10.010,17.138,14.001,18.041,10.005,14.387,-5.988,-8.389,9.253
2019.07.22 14:02:33.860,-2.541,-4.482,-13.160,7.785,-21.763,20.413,-21.008,3.456,-8.126,10.936,7.434,16.657,12.454,17.170,9.792,7.756,-5.072,-8.377,9.362
2019.07.22 14:02:33.864,-2.404,-3.082,-11.636,8.895,-21.076,21.840,-25.765,4.464,-9.082,10.805,4.659,17.079,11.878,17.586,10.960,4.579,-5.030,-7.949,9.789
2019.07.22 14:02:33.868,-2.126,-3.455,-11.360,8.189,-21.524,21.043,-28.374,5.247,-8.987,10.650,3.486,18.915,12.568,19.292,13.069,7.709,-6.297,-7.909,10.378
2019.07.22 14:02:33.872,-0.371,-4.231,-12.673,7.010,-22.400,19.077,-28.667,6.618,-8.019,10.147,4.306,21.333,13.884,21.251,15.011,15.801,-8.057,-8.459,10.651
2019.07.22 14:02:33.876,3.041,-3.862,-14.533,6.900,-22.604,17.780,-27.712,8.729,-6.827,9.397,5.846,22.807,14.680,22.033,15.820,24.305,-9.094,-9.138,10.295
2019.07.22 14:02:33.880,6.062,-2.226,-15.665,8.194,-21.883,18.038,-27.034,10.762,-6.298,8.576,6.282,22.359,14.117,20.823,15.390,28.663,-9.003,-9.380,9.459
2019.07.22 14:02:33.884,5.469,-0.903,-15.778,9.688,-21.228,18.955,-27.478,11.569,-6.979,7.610,4.747,20.357,12.244,18.031,14.516,27.311,-8.596,-9.093,8.618
2019.07.22 14:02:33.888,-0.436,-1.746,-15.682,9.763,-21.967,18.727,-28.609,10.721,-8.630,6.300,1.966,18.211,9.920,15.055,14.224,22.378,-9.043,-8.653,8.166
2019.07.22 14:02:33.892,-9.711,-4.962,-16.216,8.011,-24.339,16.514,-29.125,9.014,-10.281,4.833,-0.469,17.247,8.172,13.442,14.963,17.851,-10.496,-8.338,8.115
2019.07.22 14:02:33.896,-17.345,-8.471,-17.072,5.871,-26.873,13.591,-27.925,7.972,-10.817,4.115,-1.448,17.718,7.524,14.079,16.296,16.765,-11.543,-7.811,8.162
2019.07.22 14:02:33.900,-18.530,-9.317,-16.723,5.580,-27.284,12.590,-24.947,8.684,-9.631,5.433,-1.152,18.750,7.793,16.938,17.331,19.513,-10.163,-6.263,8.013
2019.07.22 14:02:33.904,-12.285,-6.094,-13.696,8.210,-24.283,15.333,-21.108,10.947,-6.906,9.520,-0.656,19.194,8.469,21.328,17.497,24.210,-5.525,-3.197,7.662
2019.07.22 14:02:33.908,-2.506,-0.365,-8.094,12.493,-18.799,21.030,-17.457,13.377,-3.389,15.723,-0.791,18.605,9.265,26.271,17.008,28.424,0.901,0.824,7.380
2019.07.22 14:02:33.912,4.614,4.242,-1.973,15.535,-13.526,26.489,-14.317,14.401,0.099,22.032,-1.355,17.501,10.359,30.657,16.627,30.716,5.998,4.236,7.453
2019.07.22 14:02:33.916,4.918,4.689,1.889,14.984,-11.068,28.291,-11.173,13.344,3.000,26.113,-1.362,16.738,12.109,33.283,16.967,30.970,7.064,5.427,7.918
2019.07.22 14:02:33.920,-0.938,0.821,1.873,10.895,-12.125,25.256,-7.386,10.769,5.051,26.686,-0.062,16.600,14.522,33.092,17.908,29.669,3.684,3.895,8.532
2019.07.22 14:02:33.924,-8.401,-4.558,-1.479,5.730,-15.166,19.234,-3.069,7.926,6.145,24.243,2.268,16.465,16.994,29.740,18.675,27.122,-2.059,0.645,8.964
2019.07.22 14:02:33.928,-12.750,-7.890,-6.156,2.464,-17.793,13.627,0.672,5.831,6.256,20.604,4.503,15.345,18.590,24.146,18.483,23.392,-7.200,-2.517,9.054
2019.07.22 14:02:33.932,-12.548,-7.541,-10.378,2.330,-18.621,10.931,2.382,4.740,5.513,17.692,5.655,12.848,18.688,18.441,17.247,18.833,-9.994,-4.249,8.918
2019.07.22 14:02:33.936,-10.080,-4.769,-13.784,4.064,-18.120,11.309,1.295,4.365,4.266,16.461,5.745,9.710,17.460,15.050,15.729,14.499,-10.806,-4.487,8.849
2019.07.22 14:02:33.940,-8.689,-2.266,-17.102,5.220,-17.800,13.190,-2.070,4.481,2.976,16.733,5.744,7.416,15.772,15.369,14.977,11.847,-11.192,-4.214,9.122
2019.07.22 14:02:33.944,-9.560,-1.618,-20.728,4.381,-18.586,15.130,-6.207,5.304,1.942,17.864,6.630,7.197,14.566,18.938,15.519,11.921,-12.115,-4.454,9.839
2019.07.22 14:02:33.948,-10.836,-1.926,-23.646,2.374,-19.881,17.108,-9.554,7.261,1.105,19.508,8.420,9.207,14.210,23.778,16.935,14.719,-12.937,-5.423,10.902
2019.07.22 14:02:33.952,-9.788,-0.762,-23.866,1.449,-20.160,20.110,-11.329,10.410,0.144,21.755,10.093,12.505,14.344,27.697,18.188,19.300,-12.080,-6.510,12.064
2019.07.22 14:02:33.956,-5.953,3.356,-20.128,3.200,-18.550,24.535,-11.727,14.073,-1.197,24.606,10.482,15.796,14.300,29.641,18.437,24.464,-8.723,-7.008,13.028
2019.07.22 14:02:33.960,-2.264,9.182,-13.417,7.024,-15.929,29.075,-11.464,17.086,-2.818,27.404,9.347,18.287,13.741,30.096,17.681,29.336,-3.967,-6.838,13.541
2019.07.22 14:02:33.964,-2.949,13.238,-6.849,10.457,-14.508,31.318,-11.160,18.507,-4.293,28.905,7.650,19.963,12.949,30.307,16.719,33.366,-0.335,-6.577,13.487
2019.07.22 14:02:33.968,-9.901,12.288,-3.803,11.090,-16.147,29.677,-11.049,18.201,-5.205,28.079,6.766,21.172,12.548,31.025,16.475,35.913,0.036,-6.791,12.944
2019.07.22 14:02:33.972,-20.691,5.785,-5.670,8.441,-20.821,24.939,-11.098,16.834,-5.453,24.994,7.316,21.976,12.943,31.840,17.244,36.083,-2.968,-7.349,12.156
2019.07.22 14:02:33.976,-30.065,-3.650,-10.929,4.258,-26.496,19.981,-11.247,15.289,-5.232,20.991,8.660,21.917,14.004,31.622,18.500,33.260,-7.318,-7.417,11.390
2019.07.22 14:02:33.980,-33.836,-12.068,-16.242,1.085,-30.544,17.748,-11.456,14.030,-4.686,17.909,9.507,20.436,15.279,29.671,19.390,27.984,-10.341,-6.185,10.763
2019.07.22 14:02:33.984,-31.947,-16.778,-18.651,0.384,-31.530,19.152,-11.547,12.930,-3.601,16.932,9.092,17.551,16.512,26.562,19.504,22.282,-10.553,-3.673,10.174
2019.07.22 14:02:33.988,-28.172,-17.666,-17.234,1.737,-29.954,22.656,-11.083,11.650,-1.486,17.934,7.868,14.169,17.936,23.953,19.239,18.821,-8.418,-0.856,9.419
2019.07.22 14:02:33.992,-26.746,-16.423,-13.130,3.616,-27.488,25.811,-9.545,10.161,1.916,19.772,7.078,11.666,19.983,23.442,19.421,19.215,-5.565,1.053,8.403
2019.07.22 14:02:33.996,-28.826,-14.634,-8.268,4.816,-25.509,27.338,-6.716,8.856,6.121,21.194,7.598,10.985,22.629,25.370,20.479,22.698,-3.366,1.555,7.285
2019.07.22 14:02:34.000,-31.791,-12.579,-4.063,5.184,-24.248,27.886,-2.983,8.134,9.896,21.555,9.067,11.911,24.982,28.448,21.860,26.302,-2.157,1.199,6.362
2019.07.22 14:02:34.004,-31.915,-9.696,-1.108,5.096,-23.210,28.851,0.750,7.810,11.859,20.820,10.108,13.097,25.612,30.483,22.235,26.633,-1.666,1.007,5.794
2019.07.22 14:02:34.008,-28.048,-6.063,0.224,4.410,-22.300,30.456,3.488,6.979,11.287,19.067,9.456,12.851,23.492,29.655,20.391,22.102,-2.007,1.488,5.378
2019.07.22 14:02:34.012,-23.039,-3.259,-0.800,2.124,-22.446,31.007,4.576,4.569,8.482,16.134,7.046,10.172,18.853,25.477,16.185,14.012,-4.044,2.131,4.638
2019.07.22 14:02:34.016,-21.613,-3.536,-4.989,-2.735,-24.998,28.182,3.845,0.236,4.447,11.879,4.101,5.358,13.225,18.915,10.809,5.728,-8.626,1.862,3.200
2019.07.22 14:02:34.020,-26.421,-7.850,-12.238,-9.740,-30.354,21.358,1.459,-5.096,0.160,6.785,2.176,-0.177,8.544,11.750,6.161,0.531,-15.321,0.063,1.182
2019.07.22 14:02:34.024,-35.588,-14.500,-20.793,-16.575,-37.054,12.859,-2.281,-9.575,-3.902,2.235,1.978,-4.702,5.957,5.703,3.748,-0.301,-21.939,-2.735,-0.753
2019.07.22 14:02:34.028,-43.846,-19.722,-27.700,-20.154,-42.289,6.850,-6.945,-11.458,-7.613,-0.069,2.946,-7.059,5.251,1.836,3.890,2.092,-25.536,-5.116,-1.799
2019.07.22 14:02:34.032,-46.343,-20.060,-30.348,-18.655,-43.602,6.539,-11.828,-10.161,-10.660,0.793,3.899,-7.116,5.317,0.375,5.734,5.350,-24.311,-5.824,-1.580
2019.07.22 14:02:34.036,-42.079,-14.750,-28.036,-12.865,-40.522,11.882,-15.972,-6.556,-12.260,4.177,4.100,-5.617,5.210,0.849,7.950,7.645,-18.929,-4.708,-0.464
2019.07.22 14:02:34.040,-34.276,-6.279,-22.366,-5.715,-34.870,19.621,-18.514,-2.352,-11.550,8.185,3.780,-3.615,4.921,2.376,9.539,8.671,-12.156,-2.797,0.657
2019.07.22 14:02:34.044,-27.588,1.329,-16.153,-0.297,-29.489,25.652,-19.230,0.984,-8.422,10.915,3.703,-1.894,5.186,3.992,10.193,9.316,-7.007,-1.455,0.979
2019.07.22 14:02:34.048,-24.570,5.205,-11.675,2.108,-26.374,27.823,-18.768,2.970,-4.023,11.726,4.252,-0.702,6.585,5.000,10.082,10.502,-4.799,-1.342,0.316
2019.07.22 14:02:34.052,-24.251,5.294,-9.531,2.503,-25.576,27.024,-18.281,4.070,-0.325,11.517,4.941,0.127,8.779,5.216,9.447,12.254,-4.563,-2.023,-0.840
2019.07.22 14:02:34.056,-23.683,3.904,-8.824,2.910,-25.588,25.906,-18.601,5.052,1.089,11.828,4.852,0.826,10.628,4.972,8.396,13.664,-4.151,-2.485,-1.765
2019.07.22 14:02:34.060,-20.872,3.714,-8.280,4.571,-24.753,26.500,-19.601,6.325,0.124,13.534,3.582,1.401,11.146,4.802,7.059,13.647,-2.053,-2.051,-2.058
2019.07.22 14:02:34.064,-16.475,5.896,-7.301,7.108,-22.509,28.764,-20.290,7.779,-1.753,16.210,1.781,1.584,10.440,5.009,5.798,11.766,1.544,-0.897,-1.873
2019.07.22 14:02:34.068,-12.948,9.687,-6.190,9.228,-19.603,31.123,-19.659,9.134,-2.633,18.643,0.698,1.065,9.721,5.415,5.119,8.467,5.170,0.240,-1.666
2019.07.22 14:02:34.072,-12.145,13.414,-5.585,10.170,-17.304,32.222,-17.579,10.371,-1.623,19.946,1.059,-0.217,10.274,5.501,5.237,4.673,7.423,0.801,-1.739
2019.07.22 14:02:34.076,-13.611,15.857,-5.796,10.482,-16.403,32.214,-15.005,11.781,0.492,20.255,2.272,-1.936,12.213,4.828,5.656,1.142,8.028,0.920,-1.995
2019.07.22 14:02:34.080,-15.079,16.789,-6.654,11.418,-16.829,32.407,-13.216,13.586,1.936,20.412,2.746,-3.534,14.146,3.365,5.229,-1.861,7.762,1.240,-2.100
2019.07.22 14:02:34.084,-14.646,16.494,-7.876,13.529,-18.023,33.755,-12.712,15.489,1.423,20.995,1.162,-4.583,14.148,1.446,2.846,-4.429,7.466,2.247,-1.886
2019.07.22 14:02:34.088,-12.617,15.004,-9.449,15.794,-19.574,35.672,-12.697,16.640,-0.800,21.659,-2.332,-5.070,11.341,-0.573,-1.700,-6.647,7.128,3.724,-1.568
2019.07.22 14:02:34.092,-11.375,11.948,-11.589,16.163,-21.481,36.349,-11.678,16.121,-3.191,21.442,-6.034,-5.390,6.767,-2.622,-7.317,-8.379,5.871,4.835,-1.572
2019.07.22 14:02:34.096,-13.377,7.176,-14.317,13.152,-23.857,34.314,-8.746,13.623,-4.223,19.765,-7.882,-6.038,2.753,-4.869,-12.114,-9.357,2.814,4.749,-2.122
2019.07.22 14:02:34.100,-19.026,1.452,-17.148,7.175,-26.444,29.824,-4.521,9.753,-3.639,17.166,-7.002,-7.220,1.213,-7.354,-14.505,-9.469,-2.010,3.287,-2.964
2019.07.22 14:02:34.104,-26.188,-3.589,-19.296,0.488,-28.479,24.835,-0.914,5.719,-2.582,15.037,-4.374,-8.710,2.229,-9.693,-14.171,-8.960,-7.492,1.049,-3.528
2019.07.22 14:02:34.108,-31.723,-6.363,-20.273,-4.221,-29.080,21.548,0.171,2.623,-2.482,14.527,-2.068,-10.058,4.091,-11.179,-12.152,-8.387,-12.143,-1.010,-3.401
2019.07.22 14:02:34.112,-33.679,-6.372,-20.333,-5.498,-27.850,20.832,-1.792,0.914,-3.681,15.585,-1.664,-10.957,4.779,-11.268,-10.015,-8.342,-15.013,-2.179,-2.707
2019.07.22 14:02:34.116,-32.369,-4.443,-20.279,-3.746,-25.165,21.855,-5.587,0.402,-4.985,17.059,-3.118,-11.448,3.672,-9.999,-8.721,-9.095,-16.034,-2.285,-2.043
2019.07.22 14:02:34.120,-29.594,-1.883,-20.712,-0.464,-21.906,23.192,-9.195,0.753,-4.591,17.810,-4.952,-11.755,2.057,-7.927,-8.041,-10.355,-15.603,-1.536,-1.992
2019.07.22 14:02:34.124,-26.863,0.727,-21.334,3.142,-18.851,24.328,-11.271,1.966,-1.616,17.871,-5.560,-11.914,2.004,-5.590,-6.928,-11.253,-13.891,-0.180,-2.644
2019.07.22 14:02:34.128,-24.196,4.043,-20.950,6.964,-16.209,26.152,-11.995,4.399,3.043,18.567,-4.516,-11.553,4.561,-2.965,-4.494,-10.623,-10.594,1.661,-3.508
2019.07.22 14:02:34.132,-20.443,9.266,-18.261,11.641,-13.623,29.991,-12.663,8.286,7.293,21.403,-2.812,-10.109,8.784,0.518,-0.798,-7.528,-5.387,3.856,-3.923
2019.07.22 14:02:34.136,-14.675,16.798,-12.902,17.487,-10.604,36.057,-14.429,13.199,9.411,26.638,-1.903,-7.356,12.448,5.337,3.194,-1.807,1.366,6.061,-3.597
2019.07.22 14:02:34.140,-7.349,25.383,-5.939,23.737,-7.038,42.736,-17.260,17.974,9.314,32.793,-2.399,-3.798,13.844,11.159,6.385,5.651,8.334,7.730,-2.813
2019.07.22 14:02:34.144,-0.241,32.537,0.563,28.793,-3.420,47.428,-19.951,21.265,8.489,37.590,-3.540,-0.508,13.133,16.722,8.399,13.163,13.738,8.421,-2.127
2019.07.22 14:02:34.148,4.702,36.001,4.627,31.251,-0.689,48.301,-21.128,22.350,8.642,39.583,-3.877,1.564,12.109,20.547,9.782,19.008,16.322,8.133,-1.834
2019.07.22 14:02:34.152,6.582,35.161,5.394,30.844,0.209,45.531,-20.356,21.595,10.187,39.120,-2.566,2.309,12.560,21.949,11.384,22.244,16.040,7.371,-1.680
2019.07.22 14:02:34.156,5.876,31.347,3.484,28.560,-1.199,41.061,-18.444,20.184,11.840,37.825,-0.169,2.603,14.632,21.507,13.462,23.066,13.985,6.831,-1.095
2019.07.22 14:02:34.160,3.787,26.861,0.571,25.915,-4.599,37.126,-16.744,19.319,11.671,37.079,1.695,3.649,16.593,20.534,15.265,22.426,11.633,6.950,0.254
2019.07.22 14:02:34.164,1.344,23.508,-1.502,24.020,-8.859,34.800,-16.102,19.464,8.763,36.804,1.577,5.995,16.241,19.955,15.510,21.199,10.027,7.667,2.076
2019.07.22 14:02:34.168,-0.968,21.719,-1.545,23.165,-12.352,33.656,-16.331,20.156,4.114,35.628,-0.690,8.975,12.775,19.554,13.411,19.553,9.431,8.556,3.590
2019.07.22 14:02:34.172,-2.915,20.798,0.562,23.065,-13.598,32.641,-16.559,20.460,0.064,32.278,-3.877,11.079,7.568,18.262,9.456,17.063,9.559,9.176,4.111
2019.07.22 14:02:34.176,-4.090,19.895,3.921,23.392,-12.005,31.260,-16.063,19.654,-1.348,26.973,-6.257,11.023,3.193,15.283,5.307,13.497,10.026,9.333,3.601
2019.07.22 14:02:34.180,-3.970,18.817,7.032,24.008,-8.315,29.999,-14.808,17.632,0.204,21.586,-6.776,8.726,1.525,11.084,2.835,9.583,10.569,9.071,2.721
2019.07.22 14:02:34.184,-2.489,18.043,8.412,24.765,-4.414,29.720,-13.294,14.780,3.186,18.386,-5.591,5.411,2.479,7.337,2.975,6.971,10.948,8.488,2.337
2019.07.22 14:02:34.188,-0.534,18.038,7.187,25.155,-2.459,30.677,-11.957,11.558,5.396,18.370,-3.647,2.755,4.390,5.771,5.189,7.236,10.724,7.609,2.854
2019.07.22 14:02:34.192,0.257,18.551,3.446,24.298,-3.734,32.076,-10.790,8.188,5.512,20.547,-1.796,1.705,5.617,6.816,7.894,10.568,9.280,6.445,3.916
2019.07.22 14:02:34.196,-1.567,18.541,-1.831,21.383,-7.909,32.574,-9.537,4.697,3.836,22.722,-0.234,1.867,5.919,9.167,9.479,15.216,6.130,5.135,4.690
2019.07.22 14:02:34.200,-6.236,16.827,-7.259,16.291,-13.209,31.255,-8.247,1.198,1.773,23.083,1.308,1.915,6.428,10.649,9.202,18.293,1.325,3.968,4.495
2019.07.22 14:02:34.204,-12.440,12.969,-11.676,9.880,-17.413,28.259,-7.554,-1.916,0.594,21.305,2.911,0.662,8.287,9.741,7.387,17.549,-4.382,3.209,3.278
2019.07.22 14:02:34.208,-18.014,7.732,-14.532,3.713,-19.054,24.612,-8.310,-4.093,0.502,18.409,4.039,-2.027,11.236,6.566,4.944,12.905,-9.748,2.882,1.598
2019.07.22 14:02:34.212,-21.135,2.786,-15.827,-0.597,-18.079,21.505,-10.818,-4.938,0.682,15.680,3.801,-5.159,13.485,2.645,2.672,6.634,-13.486,2.739,0.183
2019.07.22 14:02:34.216,-21.202,-0.128,-15.737,-2.016,-15.598,19.648,-14.354,-4.452,0.155,13.701,1.710,-7.345,13.074,-0.298,0.886,1.968,-14.701,2.498,-0.552
2019.07.22 14:02:34.220,-18.875,-0.065,-14.313,-0.372,-13.023,19.121,-17.508,-2.959,-1.362,12.274,-1.729,-7.733,9.594,-1.484,-0.481,1.051,-13.122,2.142,-0.675
2019.07.22 14:02:34.224,-15.413,2.710,-11.553,3.721,-11.238,19.626,-19.146,-0.815,-3.291,11.085,-5.161,-6.454,4.748,-1.325,-1.533,3.634,-9.123,2.005,-0.525
2019.07.22 14:02:34.228,-11.928,6.910,-7.777,9.116,-10.342,20.731,-19.225,1.797,-4.803,10.299,-7.219,-4.344,1.190,-0.768,-2.218,7.368,-3.618,2.499,-0.362
2019.07.22 14:02:34.232,-9.046,10.863,-3.889,14.424,-9.981,21.888,-18.770,4.772,-5.592,10.407,-7.409,-2.296,0.536,-0.442,-2.430,9.455,2.148,3.706,-0.193
2019.07.22 14:02:34.236,-7.018,13.257,-1.145,18.325,-9.850,22.380,-18.987,7.777,-6.127,11.487,-6.356,-0.779,2.164,-0.358,-2.254,8.500,6.933,5.188,0.128
2019.07.22 14:02:34.240,-5.928,13.675,-0.444,19.960,-9.901,21.514,-20.251,10.073,-7.165,12.698,-5.238,0.175,3.822,-0.275,-2.026,5.335,9.903,6.217,0.676
2019.07.22 14:02:34.244,-5.697,12.731,-1.648,19.308,-10.163,19.112,-21.814,10.741,-8.962,12.654,-4.870,0.671,3.529,-0.203,-2.095,2.365,10.963,6.274,1.332
2019.07.22 14:02:34.248,-5.909,11.725,-3.480,17.310,-10.433,15.905,-22.504,9.245,-10.864,10.509,-5.193,0.714,1.213,-0.452,-2.484,1.934,10.786,5.419,1.868
2019.07.22 14:02:34.252,-5.788,11.984,-4.186,15.524,-10.227,13.362,-21.799,5.903,-11.674,6.818,-5.545,0.244,-1.265,-1.185,-2.771,4.805,10.434,4.237,2.120
2019.07.22 14:02:34.256,-4.546,14.159,-2.566,15.386,-9.071,12.868,-20.348,1.865,-10.530,3.357,-5.410,-0.665,-1.694,-1.987,-2.368,9.667,10.759,3.398,2.084
2019.07.22 14:02:34.260,-1.950,17.852,1.309,17.460,-6.924,14.786,-19.448,-1.488,-7.633,1.927,-4.970,-1.725,0.644,-2.028,-1.001,13.899,11.933,3.210,1.863
2019.07.22 14:02:34.264,1.331,21.788,6.145,21.137,-4.331,18.116,-19.904,-3.310,-4.248,3.094,-4.939,-2.574,4.398,-0.781,1.022,15.082,13.401,3.502,1.549
2019.07.22 14:02:34.268,3.950,24.467,10.151,25.001,-2.186,21.097,-21.244,-3.681,-1.960,5.883,-5.818,-3.015,7.291,1.331,3.012,12.408,14.281,3.884,1.195
2019.07.22 14:02:34.272,4.623,24.920,11.914,27.620,-1.259,22.340,-22.000,-3.346,-1.697,8.658,-7.230,-3.070,7.991,3.056,4.445,7.223,13.924,4.113,0.886
2019.07.22 14:02:34.276,2.900,23.148,10.935,28.275,-1.836,21.663,-20.877,-3.040,-3.226,10.384,-7.973,-2.775,7.130,3.227,5.402,2.399,12.264,4.230,0.824
2019.07.22 14:02:34.280,-0.570,19.998,7.637,27.179,-3.695,20.004,-17.871,-2.943,-5.420,11.187,-6.850,-1.956,6.650,1.750,6.502,0.844,9.782,4.386,1.256
2019.07.22 14:02:34.284,-4.449,16.615,3.057,25.139,-6.348,18.553,-14.386,-2.694,-7.086,11.778,-3.643,-0.260,8.064,-0.213,8.337,3.874,7.168,4.574,2.276
2019.07.22 14:02:34.288,-7.528,13.820,-1.557,22.933,-9.320,17.816,-12.224,-1.912,-7.733,12.362,0.559,2.468,11.125,-1.126,10.835,10.347,4.919,4.548,3.646
2019.07.22 14:02:34.292,-9.387,11.801,-5.124,20.819,-12.267,17.335,-12.236,-0.749,-7.748,12.116,4.023,5.783,14.017,-0.341,13.124,17.116,3.106,4.020,4.858
2019.07.22 14:02:34.296,-10.506,10.209,-7.090,18.457,-14.945,16.208,-13.695,0.010,-7.931,9.783,5.574,8.619,14.876,1.317,14.057,20.677,1.373,2.931,5.442
2019.07.22 14:02:34.300,-11.808,8.537,-7.710,15.214,-17.150,13.892,-14.919,-0.563,-8.772,4.887,5.435,9.830,13.349,2.167,13.064,19.137,-0.868,1.513,5.321
2019.07.22 14:02:34.304,-13.960,6.499,-8.001,10.684,-18.736,10.638,-14.617,-2.839,-10.031,-1.533,5.037,8.949,10.891,1.041,10.664,13.341,-4.104,0.082,4.914
2019.07.22 14:02:34.308,-16.876,4.213,-9.213,5.109,-19.661,7.285,-12.905,-6.247,-10.925,-7.383,5.915,6.605,9.584,-1.731,8.214,6.386,-8.369,-1.232,4.870
2019.07.22 14:02:34.312,-19.708,2.152,-11.966,-0.497,-19.967,4.683,-11.193,-9.504,-10.726,-10.846,8.511,4.217,10.490,-4.505,7.024,1.764,-12.993,-2.537,5.595
2019.07.22 14:02:34.316,-21.300,0.922,-15.633,-4.637,-19.677,3.268,-11.061,-11.312,-9.327,-11.489,11.788,3.136,12.896,-5.541,7.492,1.269,-16.689,-3.941,6.928
2019.07.22 14:02:34.320,-20.838,0.969,-18.538,-5.972,-18.719,3.052,-13.021,-11.030,-7.325,-10.264,13.954,3.851,15.039,-4.256,8.913,4.035,-18.043,-5.261,8.234
2019.07.22 14:02:34.324,-18.335,2.320,-19.008,-4.035,-17.002,3.859,-16.121,-8.912,-5.592,-8.486,13.740,5.812,15.618,-1.533,10.094,7.328,-16.271,-5.997,8.853
2019.07.22 14:02:34.328,-14.647,4.497,-16.611,0.389,-14.618,5.498,-18.644,-5.836,-4.666,-6.767,11.290,7.957,14.818,1.077,10.299,8.523,-11.784,-5.669,8.582
2019.07.22 14:02:34.332,-10.994,6.693,-12.591,5.535,-11.980,7.717,-19.303,-2.777,-4.436,-4.820,8.017,9.483,14.019,2.544,9.802,6.904,-6.110,-4.245,7.830
2019.07.22 14:02:34.336,-8.248,8.184,-9.069,9.545,-9.710,10.109,-18.016,-0.372,-4.324,-2.215,5.602,10.275,14.514,2.971,9.615,4.059,-1.092,-2.272,7.325
2019.07.22 14:02:34.340,-6.435,8.790,-7.494,11.496,-8.287,12.227,-15.727,1.214,-3.784,0.760,4.919,10.742,16.386,3.242,10.665,2.695,2.191,-0.538,7.612
2019.07.22 14:02:34.344,-4.804,9.051,-7.552,11.892,-7.704,13.902,-13.551,2.175,-2.701,3.057,5.685,11.296,18.501,4.148,13.064,4.755,4.016,0.471,8.686
2019.07.22 14:02:34.348,-2.457,9.928,-7.446,12.213,-7.454,15.456,-11.974,2.839,-1.365,3.770,6.990,11.977,19.582,5.776,16.049,10.176,5.640,0.870,10.025
2019.07.22 14:02:34.352,0.869,12.150,-5.405,13.770,-6.901,17.493,-10.712,3.470,-0.088,3.102,8.180,12.492,19.389,7.594,18.589,16.997,8.187,1.154,10.956
2019.07.22 14:02:34.356,4.476,15.629,-1.251,16.638,-5.792,20.312,-9.222,4.124,1.160,2.401,9.314,12.541,18.935,8.987,20.100,22.584,11.616,1.659,11.076
2019.07.22 14:02:34.360,7.095,19.383,3.272,19.492,-4.489,23.407,-7.318,4.594,2.752,3.036,10.871,12.060,19.521,9.638,20.669,25.010,14.616,2.184,10.424
2019.07.22 14:02:34.364,7.773,22.078,5.734,20.509,-3.730,25.541,-5.356,4.468,4.986,5.010,13.020,11.139,21.403,9.455,20.616,23.746,15.558,2.156,9.350
2019.07.22 14:02:34.368,6.561,22.824,4.887,18.705,-4.078,25.469,-3.878,3.348,7.622,6.584,15.165,9.768,23.258,8.249,19.864,19.492,13.805,1.203,8.216
2019.07.22 14:02:34.372,4.447,21.637,1.652,14.703,-5.501,22.812,-3.099,1.144,9.798,5.409,16.208,7.749,22.978,5.667,17.751,13.561,10.327,-0.365,7.175
2019.07.22 14:02:34.376,2.560,19.254,-1.580,10.322,-7.394,18.378,-2.761,-1.742,10.487,0.375,15.330,4.936,19.236,1.575,13.557,7.360,7.064,-1.653,6.167
2019.07.22 14:02:34.380,1.255,16.464,-2.796,7.270,-9.031,13.668,-2.483,-4.531,9.176,-7.306,12.640,1.630,12.617,-3.467,7.353,2.119,5.486,-1.826,5.072
2019.07.22 14:02:34.384,-0.152,13.533,-1.889,5.958,-10.066,9.911,-2.279,-6.488,6.242,-14.719,9.115,-1.316,5.393,-8.193,0.416,-1.298,5.467,-0.805,3.871
2019.07.22 14:02:34.388,-2.770,10.192,-0.637,5.335,-10.718,7.389,-2.737,-7.378,2.696,-19.158,5.874,-2.909,0.099,-11.304,-5.270,-2.688,5.377,0.591,2.676
2019.07.22 14:02:34.392,-7.140,6.142,-1.193,3.873,-11.551,5.549,-4.621,-7.629,-0.542,-19.841,3.393,-2.715,-2.050,-12.351,-8.170,-2.738,3.383,1.223,1.636
2019.07.22 14:02:34.396,-12.704,1.602,-4.341,0.883,-13.101,3.722,-8.179,-8.031,-3.255,-18.153,1.327,-1.313,-1.743,-12.077,-8.187,-2.823,-1.056,0.489,0.816
2019.07.22 14:02:34.400,-18.210,-2.664,-8.900,-2.879,-15.643,1.791,-12.724,-9.156,-5.956,-16.304,-0.916,-0.050,-0.804,-11.852,-6.684,-4.235,-6.644,-1.211,0.166
2019.07.22 14:02:34.404,-22.700,-5.893,-12.745,-5.811,-19.229,0.238,-16.877,-10.932,-9.291,-15.593,-3.369,-0.186,-0.726,-12.590,-5.462,-7.232,-11.119,-2.789,-0.406
2019.07.22 14:02:34.408,-26.208,-7.982,-14.527,-6.766,-23.791,-0.412,-19.363,-12.683,-13.326,-15.669,-5.220,-2.031,-1.662,-14.032,-5.462,-10.661,-12.862,-3.293,-0.918
2019.07.22 14:02:34.412,-29.517,-9.653,-14.705,-6.000,-29.121,-0.196,-19.791,-13.608,-17.299,-15.255,-5.357,-4.697,-2.560,-15.005,-6.153,-12.592,-12.024,-2.598,-1.264
2019.07.22 14:02:34.416,-33.193,-11.917,-15.081,-4.984,-34.698,0.219,-18.867,-13.334,-20.094,-13.554,-3.358,-6.677,-2.251,-14.447,-6.100,-11.663,-10.333,-1.420,-1.264
2019.07.22 14:02:34.420,-36.796,-15.264,-17.267,-5.258,-39.615,0.077,-17.871,-12.108,-21.040,-11.032,-0.071,-6.832,-0.542,-12.328,-4.240,-8.165,-9.758,-0.699,-0.792
2019.07.22 14:02:34.424,-39.104,-19.256,-21.337,-7.200,-42.828,-0.798,-17.790,-10.527,-20.417,-8.945,2.755,-5.077,1.553,-9.678,-0.848,-3.980,-11.072,-0.876,0.125
2019.07.22 14:02:34.428,-39.269,-22.883,-25.689,-9.705,-43.697,-1.813,-18.707,-9.064,-19.222,-8.118,3.614,-2.324,2.596,-7.725,2.598,-1.296,-13.355,-1.634,1.300
2019.07.22 14:02:34.432,-37.927,-25.378,-28.142,-10.959,-42.427,-2.052,-19.853,-7.786,-18.390,-8.124,2.311,0.201,1.885,-6.880,4.545,-1.018,-14.745,-2.259,2.491
2019.07.22 14:02:34.436,-37.130,-26.768,-27.369,-9.706,-40.002,-0.951,-20.216,-6.463,-18.063,-7.613,0.124,1.738,0.063,-6.440,4.591,-2.071,-13.784,-2.247,3.543
2019.07.22 14:02:34.440,-38.902,-27.678,-23.644,-6.036,-37.554,1.374,-19.243,-4.898,-17.498,-5.464,-1.081,2.312,-1.276,-5.236,3.809,-2.174,-10.362,-1.653,4.471
2019.07.22 14:02:34.444,-43.436,-28.573,-18.490,-1.191,-35.595,4.388,-17.153,-3.128,-15.672,-1.725,-0.137,2.496,-0.690,-2.617,3.912,0.455,-5.643,-0.937,5.424
2019.07.22 14:02:34.448,-48.454,-29.136,-13.670,3.360,-33.705,7.650,-14.694,-1.322,-12.109,2.452,2.694,2.889,2.136,1.059,5.912,5.751,-1.172,-0.505,6.549
2019.07.22 14:02:34.452,-50.468,-28.420,-10.286,6.795,-30.993,11.058,-12.606,0.486,-7.308,5.776,6.046,3.747,6.216,4.791,9.337,11.787,2.100,-0.389,7.836
2019.07.22 14:02:34.456,-47.201,-25.705,-8.472,9.176,-26.992,14.593,-11.201,2.505,-2.489,7.778,8.512,4.971,9.975,7.748,12.625,16.070,4.210,-0.314,9.072
2019.07.22 14:02:34.460,-39.366,-21.325,-7.650,11.016,-22.306,17.878,-10.324,4.960,1.113,8.935,9.567,6.317,12.255,9.743,14.325,17.147,5.846,-0.030,9.935
2019.07.22 14:02:34.464,-30.395,-16.724,-6.994,12.692,-18.435,20.089,-9.639,7.714,2.861,9.951,9.696,7.604,12.898,11.013,14.149,15.353,7.664,0.425,10.190
2019.07.22 14:02:34.468,-24.200,-13.566,-5.818,14.194,-16.855,20.447,-8.967,10.138,2.878,10.940,9.716,8.730,12.559,11.620,13.014,12.256,9.795,0.759,9.831
2019.07.22 14:02:34.472,-22.584,-12.593,-3.843,15.320,-17.969,18.908,-8.390,11.425,1.773,11.307,9.962,9.589,12.004,11.174,12.117,9.385,11.783,0.684,9.083
2019.07.22 14:02:34.476,-24.245,-13.132,-1.349,16.008,-20.733,16.417,-8.089,11.188,0.278,10.399,10.058,10.028,11.529,9.234,11.849,7.271,12.908,0.144,8.250
2019.07.22 14:02:34.480,-26.046,-13.675,0.867,16.428,-23.209,14.371,-8.077,9.816,-0.946,8.258,9.420,9.912,10.941,6.030,11.496,5.476,12.594,-0.705,7.517
2019.07.22 14:02:34.484,-25.510,-13.046,1.862,16.756,-23.697,13.637,-8.075,8.243,-1.330,5.726,8.007,9.225,10.040,2.739,9.975,3.396,10.728,-1.672,6.864
2019.07.22 14:02:34.488,-22.565,-11.219,1.166,16.925,-21.680,13.932,-7.622,7.258,-0.456,3.771,6.590,8.086,9.091,0.893,6.973,1.043,7.772,-2.652,6.144
2019.07.22 14:02:34.492,-19.255,-9.143,-0.735,16.619,-18.009,14.100,-6.352,6.890,1.724,2.693,6.239,6.640,8.787,1.295,3.454,-0.885,4.669,-3.550,5.252
2019.07.22 14:02:34.496,-17.799,-7.809,-2.518,15.579,-14.319,13.105,-4.226,6.420,4.635,1.969,7.415,4.964,9.652,3.324,1.047,-1.670,2.516,-4.115,4.232
2019.07.22 14:02:34.500,-18.694,-7.410,-2.852,13.890,-12.124,10.921,-1.589,5.046,7.122,0.909,9.433,3.076,11.364,5.298,0.725,-1.357,2.056,-3.934,3.227
2019.07.22 14:02:34.504,-20.439,-7.343,-1.417,11.956,-12.166,8.554,0.971,2.677,7.927,-0.533,10.792,1.073,12.646,5.673,1.863,-0.952,3.196,-2.700,2.332
2019.07.22 14:02:34.508,-21.017,-6.979,0.688,10.140,-14.253,7.177,2.832,0.168,6.401,-1.605,10.194,-0.765,11.960,4.156,2.504,-1.836,4.881,-0.584,1.489
2019.07.22 14:02:34.512,-19.786,-6.461,1.600,8.400,-17.505,7.102,3.537,-1.231,2.969,-1.478,7.495,-2.031,8.633,1.849,0.744,-4.815,5.544,1.653,0.560
2019.07.22 14:02:34.516,-18.100,-6.695,0.038,6.323,-20.711,7.524,2.904,-0.805,-1.020,-0.163,3.872,-2.408,3.570,0.360,-3.770,-9.504,4.007,2.992,-0.487
2019.07.22 14:02:34.520,-18.081,-8.467,-3.644,3.590,-22.663,7.273,1.093,1.092,-4.002,1.304,1.069,-1.883,-1.048,0.641,-9.377,-14.454,0.310,2.791,-1.443
2019.07.22 14:02:34.524,-20.594,-11.431,-7.564,0.539,-22.432,5.992,-1.391,3.339,-4.984,1.731,0.285,-0.753,-2.991,2.518,-13.356,-17.893,-4.128,1.241,-1.935
2019.07.22 14:02:34.528,-24.172,-13.928,-9.564,-1.738,-19.648,4.688,-3.778,4.970,-3.904,1.021,1.484,0.591,-1.350,5.199,-13.655,-18.563,-7.243,-0.731,-1.689
2019.07.22 14:02:34.532,-25.927,-13.943,-8.702,-1.941,-14.706,5.142,-5.256,5.927,-1.386,0.622,3.599,1.938,2.924,8.192,-10.157,-16.195,-7.546,-2.073,-0.762
2019.07.22 14:02:34.536,-23.788,-10.547,-5.841,0.561,-8.730,8.558,-5.282,7.040,1.802,2.643,5.373,3.366,7.676,11.730,-4.636,-11.436,-5.041,-2.319,0.460
2019.07.22 14:02:34.540,-18.295,-4.695,-2.935,5.158,-3.199,14.516,-3.865,9.231,5.127,8.182,6.193,5.081,10.964,16.297,0.500,-5.451,-1.211,-1.849,1.557
2019.07.22 14:02:34.544,-12.437,1.303,-1.600,10.214,0.646,21.079,-1.614,12.621,8.265,16.231,6.321,7.142,12.194,21.726,3.681,0.533,1.931,-1.532,2.408
2019.07.22 14:02:34.548,-9.588,5.272,-2.088,13.961,2.289,25.998,0.522,16.288,10.837,24.105,6.452,9.284,12.207,26.757,4.859,5.521,3.076,-2.041,3.269
2019.07.22 14:02:34.552,-11.093,6.526,-3.410,15.471,2.054,28.130,1.711,18.878,12.301,29.167,7.041,10.993,12.332,29.567,5.025,8.866,2.286,-3.362,4.488
2019.07.22 14:02:34.556,-15.378,6.085,-4.345,15.045,0.791,28.007,1.619,19.576,12.192,30.524,7.926,11.748,13.194,28.939,5.116,10.266,0.699,-4.847,6.062
2019.07.22 14:02:34.560,-19.237,5.668,-4.457,13.796,-0.635,27.203,0.490,18.628,10.539,29.391,8.517,11.255,14.224,25.108,5.235,9.689,-0.434,-5.730,7.430
2019.07.22 14:02:34.564,-20.278,6.309,-4.285,12.786,-1.720,27.056,-1.135,17.020,8.032,27.903,8.295,9.504,14.204,19.607,4.723,7.274,-0.635,-5.669,7.747
2019.07.22 14:02:34.568,-18.604,7.668,-4.674,12.373,-2.390,27.759,-2.817,15.627,5.698,27.393,7.206,6.678,12.347,14.226,2.907,3.236,-0.368,-4.909,6.476
2019.07.22 14:02:34.572,-16.457,8.489,-5.920,12.187,-2.824,28.441,-4.464,14.545,4.256,27.528,5.634,3.040,8.984,9.917,-0.202,-2.126,-0.473,-4.006,3.858
2019.07.22 14:02:34.576,-16.193,7.745,-7.469,11.653,-3.220,28.060,-6.224,13.146,3.653,26.896,4.041,-1.097,5.312,6.480,-3.840,-8.335,-1.355,-3.375,0.823
2019.07.22 14:02:34.580,-18.237,5.494,-8.336,10.564,-3.668,26.316,-8.169,10.747,3.176,24.401,2.603,-5.350,2.447,3.165,-7.060,-14.607,-2.605,-3.029,-1.622
2019.07.22 14:02:34.584,-20.670,2.817,-7.825,9.229,-4.121,23.875,-10.024,7.262,2.095,20.211,1.153,-9.272,0.607,-0.431,-9.394,-19.859,-3.307,-2.672,-3.106
2019.07.22 14:02:34.588,-20.755,0.978,-5.922,8.128,-4.437,21.796,-11.229,3.297,0.320,15.498,-0.559,-12.465,-0.874,-3.951,-11.028,-22.979,-2.764,-2.011,-4.119
2019.07.22 14:02:34.592,-17.194,0.528,-3.177,7.404,-4.418,20.720,-11.297,-0.344,-1.450,11.351,-2.531,-14.714,-2.739,-6.639,-12.387,-23.278,-1.081,-1.007,-5.556
2019.07.22 14:02:34.596,-11.328,1.035,-0.329,6.674,-3.914,20.458,-10.205,-3.235,-2.232,7.926,-4.408,-16.024,-4.958,-8.050,-13.544,-20.892,0.842,0.116,-7.901
2019.07.22 14:02:34.600,-6.324,1.551,1.923,5.321,-2.979,20.265,-8.516,-5.451,-1.546,4.612,-5.707,-16.508,-6.629,-8.439,-14.033,-16.853,1.856,1.039,-10.715
2019.07.22 14:02:34.604,-4.964,1.336,2.933,3.050,-2.003,19.465,-7.079,-7.162,0.150,0.987,-6.174,-16.224,-6.761,-8.495,-13.245,-12.701,1.264,1.546,-12.837
2019.07.22 14:02:34.608,-7.698,0.280,2.161,0.222,-1.641,17.908,-6.524,-8.160,1.721,-2.449,-5.994,-15.127,-5.279,-8.724,-11.068,-9.789,-0.802,1.597,-13.200
2019.07.22 14:02:34.612,-12.393,-1.224,-0.497,-2.307,-2.460,15.935,-6.888,-7.844,2.140,-4.532,-5.671,-13.196,-3.328,-9.064,-8.164,-8.637,-3.507,1.287,-11.616
2019.07.22 14:02:34.616,-15.927,-2.687,-4.300,-3.740,-4.461,13.986,-7.613,-5.775,1.222,-4.513,-5.671,-10.634,-2.507,-9.063,-5.595,-8.700,-5.794,0.781,-8.954
2019.07.22 14:02:34.620,-16.372,-3.820,-7.626,-3.845,-6.806,12.271,-7.896,-2.322,-0.221,-2.921,-6.099,-7.925,-3.601,-8.406,-4.068,-8.716,-6.845,0.296,-6.556
2019.07.22 14:02:34.624,-14.149,-4.518,-8.625,-3.021,-8.052,10.771,-7.132,1.257,-0.884,-1.329,-6.657,-5.656,-5.856,-7.259,-3.436,-7.488,-6.289,0.091,-5.354
2019.07.22 14:02:34.628,-11.377,-4.669,-6.288,-1.874,-6.883,9.510,-5.162,3.491,0.206,-1.093,-6.882,-4.202,-7.452,-6.140,-2.904,-4.688,-4.132,0.406,-5.346
2019.07.22 14:02:34.632,-10.017,-4.073,-1.150,-0.673,-2.927,8.767,-2.258,3.702,3.106,-2.155,-6.489,-3.535,-6.881,-5.449,-1.796,-1.219,-0.601,1.335,-5.776
2019.07.22 14:02:34.636,-10.315,-2.580,4.962,0.856,2.866,8.953,1.051,2.514,6.955,-3.034,-5.550,-3.303,-4.121,-5.144,-0.239,1.168,3.919,2.712,-5.797
2019.07.22 14:02:34.640,-10.729,-0.304,9.998,3.210,8.579,10.235,4.121,1.438,10.468,-2.134,-4.385,-3.124,-0.662,-4.844,0.845,0.882,8.832,4.132,-5.067
2019.07.22 14:02:34.644,-9.355,2.317,12.790,6.515,12.262,12.222,6.272,1.783,12.600,0.679,-3.291,-2.849,1.670,-4.246,0.486,-2.416,13.298,5.115,-3.841
2019.07.22 14:02:34.648,-5.687,4.702,13.353,10.168,12.882,14.032,6.894,3.752,12.997,3.677,-2.339,-2.587,2.139,-3.411,-1.419,-7.313,16.398,5.346,-2.587
2019.07.22 14:02:34.652,-1.286,6.408,12.328,13.065,10.757,14.778,5.669,6.393,12.046,4.505,-1.382,-2.497,1.602,-2.655,-3.811,-11.218,17.483,4.817,-1.551
2019.07.22 14:02:34.656,1.211,7.290,10.231,14.292,7.259,14.138,2.852,8.423,10.584,2.172,-0.271,-2.568,1.706,-2.165,-5.089,-11.810,16.555,3.801,-0.651
2019.07.22 14:02:34.660,0.051,7.494,7.330,13.788,4.040,12.590,-0.624,9.223,9.462,-1.867,0.967,-2.591,3.435,-1.747,-4.223,-8.538,14.387,2.681,0.266
2019.07.22 14:02:34.664,-4.173,7.339,4.202,12.455,2.252,11.148,-3.427,9.213,9.184,-4.542,2.127,-2.355,6.266,-0.997,-1.501,-3.148,12.240,1.762,1.110
2019.07.22 14:02:34.668,-8.671,7.257,2.222,11.592,2.183,10.733,-4.432,9.327,9.742,-3.383,3.043,-1.857,8.625,0.270,1.685,1.258,11.276,1.177,1.557
2019.07.22 14:02:34.672,-10.180,7.769,3.083,12.064,3.366,11.633,-3.333,10.104,10.695,1.563,3.796,-1.336,9.262,1.718,3.851,2.149,11.986,0.897,1.356
2019.07.22 14:02:34.676,-7.065,9.351,7.396,13.775,4.987,13.368,-0.828,11.171,11.420,7.644,4.691,-1.084,8.327,2.663,4.431,-0.764,13.993,0.799,0.654
2019.07.22 14:02:34.680,-0.373,12.139,13.473,15.815,6.300,15.023,1.772,11.560,11.395,11.443,5.957,-1.243,7.205,2.564,3.991,-5.345,16.326,0.747,-0.047
2019.07.22 14:02:34.684,6.846,15.606,17.716,17.092,6.852,15.774,3.297,10.546,10.368,11.156,7.390,-1.769,7.215,1.431,3.529,-8.549,18.010,0.647,-0.314
2019.07.22 14:02:34.688,11.402,18.528,16.908,16.946,6.511,15.246,3.332,8.281,8.355,7.696,8.278,-2.587,8.287,-0.231,3.470,-8.632,18.569,0.490,-0.223
2019.07.22 14:02:34.692,11.712,19.458,11.019,15.329,5.384,13.538,2.322,5.671,5.517,3.755,7.763,-3.753,8.831,-1.855,3.257,-6.443,18.163,0.374,-0.386
2019.07.22 14:02:34.696,8.337,17.525,4.329,12.543,3.726,10.996,1.147,3.631,2.080,1.646,5.460,-5.410,6.998,-3.216,1.892,-4.778,17.341,0.473,-1.459
2019.07.22 14:02:34.700,3.191,13.060,3.547,8.948,1.895,8.005,0.541,2.385,-1.631,1.681,1.868,-7.538,2.352,-4.431,-1.024,-6.198,16.659,0.955,-3.522
2019.07.22 14:02:34.704,-1.800,7.573,13.770,4.973,0.332,4.970,0.764,1.446,-5.101,2.288,-1.784,-9.738,-3.463,-5.599,-4.678,-10.917,16.462,1.876,-5.866
2019.07.22 14:02:34.708,-5.559,3.019,34.914,1.405,-0.463,2.459,1.676,0.301,-7.630,1.674,-4.256,-11.312,-7.732,-6.466,-7.461,-16.395,16.917,3.148,-7.434
2019.07.22 14:02:34.712,-7.809,0.811,61.175,-0.495,-0.035,1.253,3.026,-0.817,-8.579,-0.414,-5.086,-11.652,-8.628,-6.499,-8.144,-19.031,18.124,4.594,-7.610
2019.07.22 14:02:34.716,-8.510,1.207,84.041,0.576,1.840,2.114,4.641,-0.807,-7.734,-2.290,-4.864,-10.645,-6.578,-5.335,-6.865,-16.765,20.080,6.049,-6.693
2019.07.22 14:02:34.720,-7.505,3.425,96.939,5.069,4.959,5.325,6.374,1.559,-5.530,-1.603,-4.741,-8.751,-3.915,-3.204,-5.065,-10.637,22.467,7.408,-5.656
2019.07.22 14:02:34.724,-4.780,6.292,98.461,11.897,8.629,10.319,7.968,6.560,-2.870,2.735,-5.487,-6.657,-3.030,-0.885,-4.352,-4.132,24.515,8.560,-5.348
2019.07.22 14:02:34.728,-0.968,8.897,92.273,18.655,11.868,15.730,9.075,12.977,-0.602,9.490,-6.824,-4.790,-4.489,0.795,-5.189,-0.776,25.221,9.293,-5.787
2019.07.22 14:02:34.732,2.578,10.835,84.153,22.860,13.859,19.985,9.509,18.597,1.001,15.750,-7.568,-3.116,-6.615,1.517,-6.475,-1.779,23.969,9.289,-6.144
2019.07.22 14:02:34.736,4.487,12.057,78.480,23.457,14.407,22.100,9.498,21.494,2.327,18.770,-6.532,-1.379,-6.906,1.621,-6.449,-5.422,21.131,8.289,-5.451
2019.07.22 14:02:34.740,4.403,12.666,76.456,21.476,14.088,22.187,9.625,21.196,3.972,17.686,-3.527,0.441,-4.161,1.743,-4.216,-8.544,18.112,6.347,-3.456
2019.07.22 14:02:34.744,3.411,12.903,76.730,19.249,13.877,21.277,10.378,18.896,6.076,13.903,0.327,1.928,0.397,2.319,-0.649,-8.885,16.599,3.938,-0.919
2019.07.22 14:02:34.748,3.296,13.258,77.304,18.678,14.447,20.560,11.630,16.571,8.020,9.994,3.274,2.508,3.914,3.371,2.103,-6.501,17.420,1.777,0.912
2019.07.22 14:02:34.752,5.022,14.381,77.015,19.853,15.610,20.578,12.538,15.638,8.797,7.995,4.107,1.980,4.032,4.701,2.206,-3.301,19.847,0.424,1.211
2019.07.22 14:02:34.756,7.669,16.633,75.721,21.118,16.370,20.943,12.076,16.104,7.834,8.294,2.990,0.787,0.690,6.163,-0.423,-1.311,21.957,-0.060,0.152
2019.07.22 14:02:34.760,8.854,19.575,73.645,20.576,15.637,20.796,9.880,16.768,5.604,9.747,1.294,-0.282,-3.789,7.663,-3.977,-1.163,21.930,-0.106,-1.312
2019.07.22 14:02:34.764,6.575,21.939,70.874,17.824,13.153,19.632,6.758,16.258,3.500,10.775,0.577,-0.765,-6.369,8.859,-6.050,-1.978,19.369,-0.274,-2.242
2019.07.22 14:02:34.768,1.123,22.377,67.502,14.447,9.912,17.846,4.352,14.096,2.956,10.527,1.488,-0.965,-5.417,9.001,-5.370,-2.523,15.621,-0.799,-2.398
2019.07.22 14:02:34.772,-4.572,20.597,64.034,12.765,7.684,16.546,4.104,11.027,4.479,9.352,3.428,-1.703,-1.667,7.303,-2.603,-2.476,12.771,-1.418,-2.262
2019.07.22 14:02:34.776,-6.741,17.992,61.340,13.788,7.904,16.752,6.238,8.428,7.298,8.367,5.182,-3.515,2.597,3.731,0.341,-2.624,12.038,-1.639,-2.433
2019.07.22 14:02:34.780,-3.582,17.034,59.993,16.094,10.703,18.611,9.546,7.296,9.931,8.587,5.953,-5.992,5.366,-0.470,1.890,-3.896,12.809,-1.222,-2.974
2019.07.22 14:02:34.784,3.064,19.606,59.625,16.713,14.780,21.243,12.183,7.585,11.205,10.261,5.929,-7.882,6.213,-3.181,1.940,-6.179,13.142,-0.460,-3.312
2019.07.22 14:02:34.788,8.688,25.356,59.060,13.476,18.229,23.335,12.882,8.347,10.923,12.802,5.933,-7.997,6.142,-2.714,1.636,-8.101,11.374,0.016,-2.793
2019.07.22 14:02:34.792,9.277,31.381,57.274,7.018,19.686,24.019,11.690,8.523,9.710,15.227,6.483,-6.196,6.251,0.865,2.070,-8.052,7.590,-0.221,-1.381
2019.07.22 14:02:34.796,4.415,33.706,54.333,0.741,18.974,23.349,9.675,7.751,8.214,16.724,7.102,-3.608,6.486,5.531,3.087,-5.595,3.719,-0.977,0.149
2019.07.22 14:02:34.800,-2.137,29.728,51.369,-1.445,16.841,22.032,7.897,6.578,6.440,16.962,6.540,-1.811,5.600,8.581,3.303,-1.987,2.125,-1.515,0.752
2019.07.22 14:02:34.804,-5.076,19.992,49.452,2.018,14.134,20.714,6.514,5.961,3.794,16.063,3.777,-1.584,2.367,8.572,1.373,0.730,3.739,-1.122,-0.035
2019.07.22 14:02:34.808,-1.638,8.036,48.394,9.047,11.165,19.451,4.785,6.470,-0.163,14.401,-0.975,-2.263,-3.025,6.436,-2.573,1.377,7.245,0.274,-1.645
2019.07.22 14:02:34.812,5.945,-1.626,46.701,15.257,7.788,17.838,1.945,7.833,-4.957,12.474,-6.120,-2.267,-8.639,4.800,-6.625,0.659,10.001,1.957,-2.852
2019.07.22 14:02:34.816,11.648,-6.020,42.951,16.984,4.029,15.654,-1.814,9.168,-9.140,10.886,-9.592,-0.405,-11.910,5.948,-8.307,0.633,10.020,2.898,-2.690
2019.07.22 14:02:34.820,9.868,-5.075,37.495,13.749,0.565,13.400,-5.137,9.717,-11.092,10.335,-10.168,3.103,-11.407,9.977,-6.433,2.985,7.479,2.508,-1.175
2019.07.22 14:02:34.824,-0.356,-1.067,32.848,8.342,-1.494,12.162,-6.342,9.478,-10.095,11.394,-8.230,6.755,-7.854,14.629,-2.098,7.493,4.552,1.078,0.743
2019.07.22 14:02:34.828,-14.335,3.204,32.091,4.561,-1.426,12.804,-4.666,9.208,-6.839,14.092,-5.400,8.933,-3.604,16.966,2.030,11.931,3.712,-0.452,1.956
2019.07.22 14:02:34.832,-24.844,6.083,36.363,4.375,0.372,15.127,-0.927,9.770,-2.957,17.589,-3.351,9.142,-0.957,15.588,3.630,13.570,5.815,-1.202,2.055
2019.07.22 14:02:34.836,-27.214,7.461,43.490,6.682,2.467,17.705,2.973,11.293,0.054,20.303,-2.699,8.265,-0.605,11.621,2.363,11.148,9.475,-0.997,1.575
2019.07.22 14:02:34.840,-22.665,7.971,49.097,8.471,3.335,18.675,5.341,12.845,1.689,20.642,-2.774,7.653,-1.359,7.742,-0.027,5.815,12.165,-0.432,1.454
2019.07.22 14:02:34.844,-17.359,7.939,49.588,7.326,2.453,16.947,5.798,12.940,2.468,18.020,-2.349,7.859,-1.283,6.065,-1.191,0.347,12.142,-0.345,2.190
2019.07.22 14:02:34.848,-17.838,7.111,44.766,3.247,0.658,12.973,5.347,10.571,3.222,13.459,-0.690,8.143,0.699,6.630,-0.017,-2.729,9.688,-1.128,3.428
2019.07.22 14:02:34.852,-26.200,5.288,38.002,-1.553,-0.576,8.480,5.382,6.045,4.290,9.223,1.907,7.217,3.997,7.667,2.635,-2.714,6.752,-2.426,4.298
2019.07.22 14:02:34.856,-38.645,3.121,33.764,-4.562,-0.386,5.338,6.472,0.963,5.291,7.488,4.432,4.574,6.890,7.295,4.801,-0.908,5.360,-3.431,4.200
2019.07.22 14:02:34.860,-48.458,2.129,34.352,-4.928,0.719,4.357,7.878,-2.716,5.562,8.815,5.995,1.193,7.887,5.130,5.094,0.591,6.087,-3.513,3.351
2019.07.22 14:02:34.864,-51.158,3.700,38.349,-3.962,1.190,4.834,8.171,-3.928,4.790,11.499,6.458,-1.068,6.813,2.437,3.776,0.461,7.731,-2.679,2.610
2019.07.22 14:02:34.868,-47.883,7.840,41.866,-3.930,-0.412,5.100,6.392,-3.194,3.248,12.402,6.399,-0.966,4.792,0.767,2.381,-1.102,8.295,-1.542,2.737
2019.07.22 14:02:34.872,-44.421,12.736,41.483,-6.278,-4.375,3.622,2.816,-2.286,1.454,8.897,6.522,1.001,3.262,0.365,2.297,-2.871,6.413,-0.875,3.722
2019.07.22 14:02:34.876,-46.662,15.662,36.544,-10.736,-9.727,-0.117,-1.269,-3.059,-0.368,0.684,7.074,2.853,2.870,-0.183,3.554,-3.787,2.126,-1.125,4.762
2019.07.22 14:02:34.880,-55.988,14.654,29.175,-15.870,-15.054,-5.452,-4.552,-6.261,-2.480,-9.787,7.726,2.643,3.138,-2.712,4.837,-3.849,-3.403,-2.221,4.910
2019.07.22 14:02:34.884,-68.201,9.757,22.347,-20.366,-19.503,-11.042,-6.600,-11.090,-5.268,-18.667,7.963,0.030,3.059,-7.716,4.649,-4.083,-8.769,-3.714,3.855
2019.07.22 14:02:34.888,-76.831,2.944,17.801,-23.841,-23.098,-15.575,-7.981,-15.730,-8.663,-22.982,7.563,-3.387,2.049,-13.628,2.578,-5.713,-12.970,-5.061,2.184
2019.07.22 14:02:34.892,-78.281,-3.184,15.490,-26.548,-26.194,-18.224,-9.565,-18.453,-11.907,-22.297,6.734,-5.294,0.427,-17.835,-0.417,-9.240,-15.438,-5.803,0.908
2019.07.22 14:02:34.896,-74.742,-6.891,14.643,-28.431,-28.656,-18.717,-11.661,-18.515,-13.938,-18.677,5.838,-4.467,-0.920,-18.645,-2.882,-14.087,-15.721,-5.613,0.657
2019.07.22 14:02:34.900,-72.527,-7.941,15.093,-28.622,-29.631,-17.193,-13.721,-16.349,-14.117,-15.052,5.016,-1.732,-1.318,-16.572,-4.080,-18.950,-13.429,-4.324,1.196
2019.07.22 14:02:34.904,-76.976,-7.068,17.429,-26.011,-28.194,-14.074,-14.846,-13.080,-12.691,-13.229,4.104,0.712,-0.816,-13.871,-4.447,-22.500,-8.668,-2.049,1.675
2019.07.22 14:02:34.908,-87.853,-4.950,21.821,-20.467,-24.331,-10.021,-14.609,-9.823,-10.596,-12.969,2.925,1.044,-0.010,-12.710,-4.924,-23.941,-2.548,0.696,1.370
2019.07.22 14:02:34.912,-98.910,-1.665,26.805,-13.596,-19.357,-5.866,-13.488,-7.248,-8.751,-12.650,1.681,-0.770,0.613,-13.484,-5.841,-23.162,2.889,3.038,0.310
2019.07.22 14:02:34.916,-102.196,2.938,29.509,-8.187,-15.276,-2.415,-12.519,-5.572,-7.423,-10.835,1.008,-2.997,1.173,-14.628,-6.424,-20.601,5.579,4.096,-0.721
2019.07.22 14:02:34.920,-94.075,8.420,27.515,-6.582,-13.501,-0.178,-12.471,-4.775,-6.180,-7.446,1.587,-3.553,2.280,-14.023,-5.454,-17.024,4.666,3.462,-0.815
2019.07.22 14:02:34.924,-78.454,13.395,20.945,-9.140,-13.953,0.803,-13.228,-4.740,-4.423,-3.675,3.583,-1.628,4.396,-10.775,-2.500,-13.355,1.139,1.486,0.344
2019.07.22 14:02:34.928,-64.647,16.174,12.943,-13.972,-15.241,0.911,-13.868,-5.227,-2.013,-0.872,6.404,1.739,7.291,-5.904,1.388,-10.504,-2.712,-0.885,2.224
2019.07.22 14:02:34.932,-61.193,16.017,7.860,-18.173,-15.789,0.728,-13.381,-5.811,0.549,0.576,9.021,4.535,10.097,-1.451,4.267,-9.112,-4.714,-2.658,3.850
2019.07.22 14:02:34.936,-69.942,13.976,8.358,-19.647,-14.996,0.785,-11.424,-5.969,2.538,1.447,10.644,5.330,11.980,1.179,4.754,-9.282,-4.100,-3.363,4.517
2019.07.22 14:02:34.940,-84.634,12.506,13.600,-18.206,-13.496,1.444,-8.555,-5.340,3.641,2.901,11.241,4.270,12.852,2.230,3.169,-10.484,-1.782,-3.230,4.246
2019.07.22 14:02:34.944,-95.043,13.955,19.927,-15.257,-12.402,2.875,-5.795,-3.954,4.259,5.482,11.488,2.807,13.490,3.188,1.344,-11.784,0.549,-2.880,3.676
2019.07.22 14:02:34.948,-93.833,18.961,23.478,-12.505,-12.239,5.050,-3.922,-2.228,5.202,8.776,12.190,2.486,14.890,5.390,1.196,-12.307,1.727,-2.797,3.517
2019.07.22 14:02:34.952,-81.415,25.925,22.755,-10.752,-12.533,7.683,-3.056,-0.698,7.015,11.938,13.640,3.806,17.352,8.872,3.206,-11.667,1.827,-2.989,4.042
2019.07.22 14:02:34.956,-65.563,31.977,19.273,-9.673,-12.379,10.219,-2.785,0.301,9.479,14.500,15.394,6.008,20.050,12.381,6.049,-10.056,1.841,-3.107,4.989
2019.07.22 14:02:34.960,-56.212,34.803,16.003,-8.537,-11.453,11.999,-2.643,0.753,11.674,16.666,16.632,7.808,21.473,14.457,7.693,-7.980,2.684,-2.849,5.881
2019.07.22 14:02:34.964,-59.097,34.055,15.055,-7.103,-10.499,12.611,-2.495,0.845,12.552,18.860,16.771,8.391,20.455,14.610,7.028,-5.837,4.408,-2.281,6.438
2019.07.22 14:02:34.968,-72.449,31.422,16.414,-5.865,-10.782,12.222,-2.514,0.771,11.605,21.031,15.854,7.870,17.028,13.648,4.681,-3.707,6.232,-1.779,6.731
2019.07.22 14:02:34.972,-88.651,29.424,18.535,-5.485,-12.924,11.600,-2.859,0.689,9.189,22.493,14.422,6.980,12.457,12.975,2.346,-1.485,7.281,-1.644,6.991
2019.07.22 14:02:34.976,-99.333,29.797,20.000,-5.997,-16.118,11.723,-3.389,0.861,6.318,22.543,13.024,6.384,8.441,13.528,1.257,0.782,7.352,-1.734,7.306
2019.07.22 14:02:34.980,-100.313,32.577,20.680,-6.538,-18.460,13.160,-3.718,1.737,4.127,21.302,11.805,6.232,6.087,15.236,1.161,2.678,7.080,-1.465,7.477
2019.07.22 14:02:34.984,-93.307,36.322,21.499,-5.892,-18.258,15.648,-3.588,3.783,3.319,19.924,10.481,6.237,5.369,17.297,0.733,3.556,7.398,-0.213,7.181
2019.07.22 14:02:34.988,-83.833,39.144,23.181,-3.435,-15.318,18.193,-3.226,7.049,3.874,19.817,8.707,6.085,5.382,18.901,-0.892,2.989,8.764,2.156,6.253
2019.07.22 14:02:34.992,-77.248,39.776,25.254,0.285,-11.215,19.645,-3.349,10.846,5.091,21.447,6.480,5.740,5.098,19.703,-2.834,1.179,10.774,5.070,4.840
2019.07.22 14:02:34.996,-75.758,38.051,26.246,3.804,-8.293,19.373,-4.738,13.894,5.915,23.779,4.235,5.400,4.000,19.758,-2.645,-0.999,12.437,7.503,3.297
2019.07.22 14:02:35.000,-78.050,34.716,24.899,5.657,-8.135,17.617,-7.639,15.014,5.426,24.948,2.569,5.246,2.211,19.166,1.975,-2.426,12.837,8.567,1.941
2019.07.22 14:02:35.004,-81.173,30.928,21.333,5.285,-10.615,15.282,-11.407,13.933,3.294,23.727,1.836,5.269,0.163,17.913,11.198,-2.383,11.707,8.012,0.891
2019.07.22 14:02:35.008,-82.915,27.779,17.151,3.329,-14.170,13.390,-14.665,11.589,-0.004,20.599,1.954,5.341,-1.790,16.091,22.395,-0.993,9.534,6.332,0.120
2019.07.22 14:02:35.012,-82.970,26.016,14.387,1.158,-17.012,12.534,-15.927,9.621,-3.372,17.476,2.554,5.391,-3.488,14.214,31.440,0.841,7.232,4.422,-0.367
2019.07.22 14:02:35.016,-82.457,25.871,14.172,0.035,-18.305,12.661,-14.336,9.323,-5.662,16.235,3.307,5.462,-4.814,13.166,35.131,1.991,5.671,3.059,-0.427
2019.07.22 14:02:35.020,-82.564,26.979,16.131,0.479,-18.482,13.214,-10.103,10.802,-6.321,17.254,4.136,5.555,-5.544,13.670,33.044,1.785,5.345,2.529,0.113
2019.07.22 14:02:35.024,-83.524,28.457,18.888,2.174,-18.580,13.497,-4.388,12.954,-5.663,19.168,5.134,5.441,-5.414,15.667,27.555,0.387,6.287,2.604,1.242
2019.07.22 14:02:35.028,-84.568,29.272,21.146,4.347,-19.222,13.028,1.306,14.264,-4.534,20.104,6.322,4.693,-4.342,18.173,22.134,-1.342,8.158,2.815,2.638
2019.07.22 14:02:35.032,-84.647,28.783,22.471,6.285,-20.089,11.755,5.909,13.840,-3.558,19.352,7.496,2.977,-2.557,19.840,19.209,-2.429,10.404,2.788,3.802
2019.07.22 14:02:35.036,-83.216,27.135,23.242,7.660,-20.237,10.087,9.298,11.917,-2.542,18.063,8.346,0.391,-0.443,19.851,19.084,-2.396,12.452,2.460,4.364
2019.07.22 14:02:35.040,-80.551,25.136,23.996,8.541,-18.950,8.724,12.262,9.538,-0.579,18.322,8.736,-2.480,1.783,18.463,20.435,-1.538,13.909,2.061,4.327
2019.07.22 14:02:35.044,-77.513,23.632,24.789,9.207,-16.425,8.328,15.924,7.742,3.148,21.350,8.882,-4.873,4.224,16.811,21.719,-0.665,14.724,1.930,4.037
2019.07.22 14:02:35.048,-75.077,22.802,25.104,9.934,-13.739,9.168,20.964,6.954,8.456,26.333,9.217,-6.293,7.102,16.181,22.298,-0.491,15.198,2.293,3.894
2019.07.22 14:02:35.052,-73.915,21.980,24.281,10.880,-12.151,10.929,27.111,7.007,13.942,30.920,10.011,-6.730,10.340,17.345,22.535,-1.029,15.794,3.128,4.045
2019.07.22 14:02:35.056,-74.181,20.192,22.088,12.082,-12.229,12.881,33.247,7.639,17.777,33.047,11.069,-6.471,13.357,20.458,23.072,-1.385,16.844,4.176,4.307
2019.07.22 14:02:35.060,-75.492,17.016,18.998,13.508,-13.428,14.331,38.096,8.918,19.017,32.603,11.785,-5.705,15.348,25.429,24.104,-0.126,18.349,5.086,4.390
2019.07.22 14:02:35.064,-77.129,12.983,16.035,15.081,-14.409,15.070,41.050,11.169,18.420,31.589,11.565,-4.301,15.920,32.250,25.284,3.938,20.005,5.611,4.215
2019.07.22 14:02:35.068,-78.475,9.047,14.317,16.643,-13.875,15.426,42.594,14.460,18.029,32.576,10.304,-2.007,15.529,40.877,26.199,10.915,21.419,5.738,4.051
2019.07.22 14:02:35.072,-79.562,5.430,14.540,17.879,-11.437,15.824,44.009,18.179,19.711,36.708,8.526,1.123,15.264,50.724,26.826,19.421,22.312,5.683,4.342
2019.07.22 14:02:35.076,-81.374,0.819,16.604,18.296,-7.961,16.170,46.535,21.155,23.687,42.791,7.054,4.445,16.040,60.365,27.478,26.911,22.539,5.724,5.349
2019.07.22 14:02:35.080,-85.522,-7.242,19.506,17.310,-5.214,15.634,50.554,22.319,28.193,48.187,6.445,6.943,17.792,67.907,28.325,30.717,21.958,5.996,6.919
2019.07.22 14:02:35.084,-93.260,-20.742,21.613,14.509,-4.960,13.145,55.337,21.406,30.600,50.743,6.624,7.823,19.382,71.983,29.033,29.393,20.325,6.367,8.575
2019.07.22 14:02:35.088,-104.373,-39.435,21.296,9.945,-8.020,8.331,59.531,19.118,29.219,50.234,7.015,7.063,19.379,72.667,28.964,23.677,17.403,6.499,9.864
2019.07.22 14:02:35.092,-116.759,-60.285,17.720,4.297,-13.798,2.154,61.988,16.624,24.437,48.234,7.047,5.461,17.170,71.536,27.812,16.438,13.224,6.063,10.680
2019.07.22 14:02:35.096,-127.260,-78.752,11.348,-1.281,-20.575,-3.389,62.376,14.781,18.372,46.654,6.629,4.118,13.496,70.688,26.064,11.426,8.279,4.962,11.290
2019.07.22 14:02:35.100,-133.394,-91.260,3.780,-5.626,-26.436,-6.469,61.165,13.671,13.324,46.195,6.198,3.707,9.940,71.341,24.762,11.323,3.398,3.418,12.040
2019.07.22 14:02:35.104,-134.921,-97.187,-3.097,-8.084,-30.296,-6.690,59.105,12.778,10.227,45.957,6.291,4.061,7.730,73.006,24.671,16.125,-0.657,1.871,12.981
2019.07.22 14:02:35.108,-134.067,-99.007,-8.137,-8.784,-32.411,-5.427,56.650,11.559,8.261,44.402,7.007,4.351,6.816,73.874,25.532,22.905,-3.581,0.768,13.726
2019.07.22 14:02:35.112,-134.081,-100.443,-11.445,-8.449,-34.037,-4.868,53.784,9.909,5.831,40.792,7.826,3.701,5.984,72.149,26.127,27.329,-5.582,0.376,13.675
2019.07.22 14:02:35.116,-136.987,-103.935,-13.972,-7.874,-36.427,-6.399,50.300,8.170,2.054,35.877,7.959,1.804,3.969,67.401,25.219,26.208,-7.028,0.727,12.468
2019.07.22 14:02:35.120,-142.063,-109.186,-16.496,-7.430,-39.842,-9.528,46.205,6.767,-2.456,31.349,6.985,-0.852,0.653,60.990,22.667,19.619,-7.999,1.657,10.308
2019.07.22 14:02:35.124,-146.170,-113.717,-18.809,-6.944,-43.268,-12.211,41.868,5.869,-6.068,28.573,5.257,-3.237,-2.631,55.283,19.779,11.185,-8.135,2.891,7.946
2019.07.22 14:02:35.128,-145.786,-114.899,-19.774,-6.023,-45.040,-12.339,37.777,5.376,-7.410,27.682,3.749,-4.275,-3.980,52.262,18.548,6.159,-6.971,4.098,6.296
2019.07.22 14:02:35.132,-139.385,-111.889,-18.290,-4.554,-43.978,-9.271,34.169,5.167,-6.350,27.708,3.430,-3.306,-2.312,52.452,20.275,8.343,-4.496,4.941,5.964
2019.07.22 14:02:35.136,-128.528,-106.105,-14.373,-2.960,-40.223,-4.261,30.905,5.281,-3.935,27.527,4.633,-0.323,1.840,54.819,24.636,17.735,-1.461,5.159,6.961
2019.07.22 14:02:35.140,-116.940,-100.061,-9.493,-2.005,-35.188,0.482,27.723,5.810,-1.422,26.751,6.877,4.024,6.731,57.532,29.882,30.404,0.890,4.682,8.753
2019.07.22 14:02:35.144,-108.220,-95.624,-5.798,-2.292,-30.662,3.294,24.622,6.597,0.689,25.829,9.233,8.616,10.644,58.996,34.011,40.721,1.540,3.705,10.555
2019.07.22 14:02:35.148,-103.770,-93.035,-4.769,-3.829,-27.721,3.941,22.003,7.120,2.803,25.349,10.918,12.193,12.928,58.461,35.970,44.526,0.345,2.638,11.665
2019.07.22 14:02:35.152,-102.256,-91.285,-6.283,-5.978,-26.198,3.314,20.370,6.775,5.497,25.227,11.645,13.778,14.054,55.994,36.019,41.225,-1.855,1.925,11.674
2019.07.22 14:02:35.156,-100.810,-89.303,-8.738,-7.814,-25.036,2.390,19.816,5.391,8.637,24.538,11.525,13.071,14.753,52.053,35.090,33.597,-3.750,1.825,10.524
2019.07.22 14:02:35.160,-96.995,-86.818,-10.121,-8.603,-23.168,1.451,19.753,3.509,11.186,22.174,10.725,10.600,15.095,47.093,33.812,25.633,-4.330,2.323,8.450
2019.07.22 14:02:35.164,-90.174,-84.229,-9.200,-8.070,-20.245,0.218,19.169,2.084,11.939,17.797,9.268,7.466,14.372,41.472,32.079,20.017,-3.384,3.208,5.898
2019.07.22 14:02:35.168,-81.514,-81.778,-6.073,-6.368,-16.735,-1.379,17.270,1.750,10.548,12.310,7.195,4.765,11.891,35.566,29.474,16.950,-1.447,4.252,3.418
2019.07.22 14:02:35.172,-72.895,-78.924,-1.839,-3.868,-13.434,-2.679,14.019,2.233,7.951,7.430,4.902,3.013,7.915,29.853,26.090,14.862,0.649,5.312,1.509
2019.07.22 14:02:35.176,-65.666,-74.621,2.182,-1.011,-10.889,-2.644,10.134,2.439,5.765,4.626,3.259,1.954,3.834,24.822,22.904,12.220,2.231,6.278,0.463
2019.07.22 14:02:35.180,-60.098,-68.267,5.063,1.716,-9.184,-0.816,6.547,1.243,5.112,4.191,3.222,0.901,1.307,20.767,21.265,8.919,2.962,6.941,0.269
2019.07.22 14:02:35.184,-55.676,-60.448,6.432,3.773,-8.133,2.022,3.721,-1.606,5.813,5.085,5.157,-0.635,1.049,17.679,21.895,6.280,2.757,6.965,0.646
2019.07.22 14:02:35.188,-51.738,-52.695,6.306,4.713,-7.575,4.245,1.370,-5.164,6.621,5.651,8.378,-2.504,2.292,15.352,24.225,5.846,1.651,6.058,1.215
2019.07.22 14:02:35.192,-47.869,-46.363,4.945,4.442,-7.414,4.624,-1.235,-7.874,6.290,4.712,11.369,-4.012,3.413,13.617,26.695,8.045,-0.187,4.254,1.688
2019.07.22 14:02:35.196,-43.814,-41.544,2.821,3.398,-7.388,3.393,-4.621,-8.627,4.601,2.303,12.645,-4.476,3.245,12.499,27.826,11.789,-2.357,2.057,1.956
2019.07.22 14:02:35.200,-39.201,-36.996,0.574,2.403,-6.908,2.157,-8.647,-7.519,2.510,-0.416,11.692,-3.800,1.977,12.127,27.228,15.198,-4.240,0.253,2.036
2019.07.22 14:02:35.204,-33.517,-31.213,-1.220,2.187,-5.266,2.610,-12.522,-5.776,1.322,-1.994,9.309,-2.584,0.905,12.490,25.763,16.815,-5.230,-0.547,1.955
2019.07.22 14:02:35.208,-26.452,-23.814,-2.373,2.873,-2.172,5.091,-15.269,-4.918,1.587,-1.690,7.070,-1.659,1.265,13.247,24.762,16.362,-5.067,-0.323,1.689
2019.07.22 14:02:35.212,-18.336,-16.055,-3.189,3.836,1.819,8.208,-16.262,-5.825,2.658,0.017,6.289,-1.413,3.164,13.817,24.961,14.646,-4.001,0.320,1.218
2019.07.22 14:02:35.216,-10.218,-9.980,-4.132,4.092,5.449,9.908,-15.483,-8.332,3.259,1.734,7.213,-1.450,5.510,13.714,26.015,12.847,-2.624,0.560,0.621
2019.07.22 14:02:35.220,-3.393,-6.853,-5.255,2.990,7.490,9.121,-13.433,-11.546,2.583,2.080,9.005,-0.908,6.983,12.878,26.924,11.847,-1.471,-0.050,0.089
2019.07.22 14:02:35.224,1.345,-6.111,-5.888,0.719,7.570,6.609,-10.849,-14.510,0.984,0.591,10.454,0.791,7.143,11.728,26.938,11.949,-0.721,-1.247,-0.196
2019.07.22 14:02:35.228,4.218,-5.711,-4.994,-1.763,6.459,4.307,-8.434,-16.706,-0.301,-2.014,10.842,3.319,6.702,10.833,26.148,12.968,-0.200,-2.238,-0.223
2019.07.22 14:02:35.232,6.346,-3.623,-1.995,-3.331,5.541,3.721,-6.690,-18.100,-0.195,-4.413,10.309,5.485,6.720,10.443,25.305,14.404,0.319,-2.277,-0.190
2019.07.22 14:02:35.236,9.069,0.723,2.567,-3.393,5.889,4.755,-5.814,-18.887,1.309,-5.687,9.532,5.971,7.468,10.243,25.096,15.591,0.856,-1.204,-0.333
2019.07.22 14:02:35.240,13.175,6.149,7.186,-2.202,7.650,5.982,-5.619,-19.219,3.121,-6.009,9.067,4.280,8.032,9.564,25.539,15.891,1.230,0.460,-0.673
2019.07.22 14:02:35.244,18.501,10.790,10.358,-0.567,10.207,6.076,-5.576,-19.123,3.953,-6.451,8.921,1.199,7.060,7.929,26.012,15.058,1.352,1.914,-0.901
2019.07.22 14:02:35.248,24.144,13.581,11.675,0.759,12.915,5.131,-5.056,-18.529,3.396,-8.008,8.662,-1.586,4.033,5.526,25.822,13.547,1.477,2.672,-0.571
2019.07.22 14:02:35.252,29.062,14.997,12.132,1.545,15.710,4.665,-3.728,-17.289,2.288,-10.578,7.904,-2.513,-0.064,3.181,24.751,12.393,2.146,2.876,0.484
2019.07.22 14:02:35.256,32.675,16.481,13.345,2.067,19.026,6.268,-1.852,-15.177,2.024,-12.759,6.674,-1.154,-3.332,1.811,23.108,12.522,3.770,3.128,1.840
2019.07.22 14:02:35.260,35.140,19.144,16.242,2.683,23.094,10.072,-0.191,-12.012,3.350,-12.746,5.383,1.482,-4.375,1.726,21.302,13.881,6.180,3.976,2.576
2019.07.22 14:02:35.264,37.203,22.844,20.255,3.397,27.319,14.383,0.491,-7.959,5.631,-9.734,4.451,3.548,-3.359,2.340,19.450,15.185,8.561,5.474,1.805
2019.07.22 14:02:35.268,39.784,26.394,23.683,3.802,30.409,16.878,0.026,-3.808,7.217,-4.748,3.998,3.502,-1.803,2.570,17.440,14.702,9.901,7.140,-0.678
2019.07.22 14:02:35.272,43.519,28.663,24.935,3.444,31.318,16.384,-0.948,-0.879,6.706,-0.148,3.865,1.063,-1.250,1.657,15.401,11.691,9.669,8.312,-4.106
2019.07.22 14:02:35.276,48.430,29.585,23.697,2.326,30.254,13.785,-1.382,-0.373,4.130,1.907,3.927,-2.614,-1.938,-0.211,14.039,7.319,8.237,8.604,-7.084
2019.07.22 14:02:35.280,53.850,30.248,21.105,1.103,28.857,11.297,-0.582,-2.514,1.150,0.942,4.327,-5.651,-2.585,-2.008,14.355,4.120,6.704,8.128,-8.382
2019.07.22 14:02:35.284,58.653,31.994,18.852,0.779,29.219,10.751,1.246,-6.126,0.022,-1.587,5.369,-6.570,-1.490,-2.678,16.817,4.150,6.224,7.344,-7.687
2019.07.22 14:02:35.288,61.720,35.330,17.983,2.073,32.397,12.285,3.107,-9.145,2.073,-3.495,7.118,-5.137,1.976,-2.009,20.656,7.198,7.320,6.712,-5.777
2019.07.22 14:02:35.292,62.509,39.546,18.357,4.911,37.557,14.457,3.951,-9.865,6.768,-3.587,9.103,-2.409,6.738,-0.854,24.001,10.613,9.653,6.433,-4.014
2019.07.22 14:02:35.296,61.419,43.310,19.101,8.396,42.479,15.567,3.461,-8.077,12.064,-2.520,10.462,0.011,10.784,-0.437,24.955,11.161,12.361,6.444,-3.499
2019.07.22 14:02:35.300,59.723,45.709,19.573,11.318,45.111,14.980,2.288,-5.203,15.789,-2.081,10.505,1.005,12.671,-1.252,22.909,7.636,14.701,6.610,-4.445
2019.07.22 14:02:35.304,59.007,46.864,19.961,12.854,45.005,13.391,1.552,-3.236,17.062,-3.480,9.264,0.591,12.555,-2.454,19.084,2.129,16.491,6.903,-6.158
2019.07.22 14:02:35.308,60.389,47.678,21.015,12.998,43.546,11.985,2.008,-3.243,16.753,-6.099,7.554,-0.197,11.919,-2.331,15.819,-1.244,18.083,7.398,-7.579
2019.07.22 14:02:35.312,63.943,49.000,23.237,12.427,42.803,11.395,3.529,-4.597,16.681,-7.812,6.450,-0.082,12.288,0.396,15.059,0.619,19.950,8.117,-7.949
2019.07.22 14:02:35.316,68.682,50.943,26.266,11.930,43.936,11.448,5.265,-5.564,18.188,-6.689,6.547,1.569,14.011,5.414,17.115,7.313,22.237,8.894,-7.183
2019.07.22 14:02:35.320,73.103,52.872,29.036,11.809,46.407,11.800,6.304,-4.816,21.108,-2.725,7.567,4.333,16.071,10.743,20.559,15.003,24.604,9.407,-5.757
2019.07.22 14:02:35.324,75.940,53.981,30.560,11.711,48.570,12.638,6.259,-2.614,23.859,1.901,8.617,7.025,16.956,13.899,23.266,19.121,26.467,9.391,-4.317
2019.07.22 14:02:35.328,76.680,53.935,30.671,11.019,49.082,14.581,5.362,-0.664,24.544,4.312,8.854,8.452,15.800,13.511,23.761,17.612,27.410,8.860,-3.324
2019.07.22 14:02:35.332,75.609,53.056,30.115,9.536,47.908,17.746,4.100,-0.706,22.235,3.049,8.042,8.102,12.865,10.187,21.943,12.214,27.494,8.170,-2.954
2019.07.22 14:02:35.336,73.487,52.019,29.948,7.928,46.138,20.938,2.787,-2.952,17.575,-0.879,6.588,6.322,9.135,6.021,18.805,6.793,27.255,7.843,-3.199
2019.07.22 14:02:35.340,71.185,51.403,30.781,7.525,44.827,22.016,1.482,-5.696,12.333,-4.839,5.118,3.967,5.534,3.129,15.606,4.213,27.426,8.278,-3.988
2019.07.22 14:02:35.344,69.482,51.474,32.458,9.517,43.981,19.478,0.225,-6.478,8.321,-6.591,4.002,1.854,2.519,2.343,13.227,4.343,28.536,9.519,-5.193
2019.07.22 14:02:35.348,69.019,52.247,34.325,14.025,42.629,14.094,-0.707,-3.938,6.432,-5.824,3.227,0.420,0.280,3.002,12.071,4.810,30.615,11.241,-6.563
2019.07.22 14:02:35.352,70.182,53.602,35.751,19.699,39.963,9.041,-0.892,1.087,6.413,-3.997,2.653,-0.243,-0.891,3.858,12.308,3.681,33.108,12.927,-7.724
2019.07.22 14:02:35.356,72.842,55.227,36.413,24.200,36.475,8.052,-0.133,6.096,7.365,-2.753,2.314,-0.146,-0.611,4.225,13.960,1.581,35.058,14.123,-8.333
2019.07.22 14:02:35.360,76.126,56.497,36.182,25.373,33.962,12.731,1.212,8.686,8.489,-2.386,2.421,0.715,1.103,4.377,16.662,1.256,35.471,14.602,-8.277
2019.07.22 14:02:35.364,78.540,56.551,34.867,22.432,34.162,21.066,2.338,8.163,9.528,-1.752,3.054,2.227,3.393,4.929,19.417,4.892,33.752,14.388,-7.756
2019.07.22 14:02:35.368,78.616,54.772,32.205,16.450,37.051,28.466,2.481,5.825,10.666,0.305,3.862,3.933,4.810,5.864,20.839,11.584,30.023,13.654,-7.145
2019.07.22 14:02:35.372,75.788,51.393,28.173,9.865,40.298,30.764,1.443,3.795,12.119,3.356,4.147,5.030,4.253,6.214,19.950,17.391,25.183,12.610,-6.737
2019.07.22 14:02:35.376,70.919,47.737,23.330,5.308,40.582,27.068,-0.306,3.432,13.814,5.206,3.358,4.735,1.906,4.772,16.959,18.214,20.617,11.453,-6.567
2019.07.22 14:02:35.380,65.991,45.703,18.770,4.449,36.017,20.347,-1.979,4.556,15.400,3.503,1.599,2.843,-0.718,1.285,13.311,13.230,17.666,10.378,-6.465
2019.07.22 14:02:35.384,63.027,46.696,15.589,7.436,27.898,15.282,-2.974,5.984,16.520,-2.103,-0.298,0.013,-1.817,-2.980,10.782,5.899,17.071,9.606,-6.278
2019.07.22 14:02:35.388,62.906,50.672,14.232,13.097,20.347,14.961,-3.101,6.720,17.048,-9.142,-1.293,-2.491,-0.659,-5.929,10.247,1.505,18.665,9.344,-6.032
2019.07.22 14:02:35.392,64.864,56.000,14.236,19.592,17.887,18.813,-2.438,6.721,17.110,-13.761,-0.871,-3.528,1.869,-6.158,11.114,3.056,21.475,9.687,-5.891
2019.07.22 14:02:35.396,67.068,60.297,14.625,25.093,22.556,23.203,-1.109,6.633,16.900,-13.473,0.575,-2.784,4.031,-4.097,11.958,8.895,24.189,10.510,-5.934
2019.07.22 14:02:35.400,67.852,61.706,14.649,28.213,32.529,24.137,0.711,6.876,16.513,-9.112,2.014,-0.948,4.711,-1.770,11.847,14.047,25.757,11.450,-5.980
2019.07.22 14:02:35.404,66.758,59.794,14.300,28.233,43.203,20.013,2.537,7.029,15.941,-4.391,2.496,0.772,4.283,-1.279,11.206,14.255,25.813,12.033,-5.663
2019.07.22 14:02:35.408,64.667,55.563,14.205,25.236,49.945,12.513,3.461,6.140,15.202,-3.279,1.727,1.458,4.089,-3.167,11.385,9.398,24.736,11.904,-4.744
2019.07.22 14:02:35.412,63.002,50.674,14.991,20.169,50.620,5.184,2.521,3.688,14.417,-7.163,0.083,1.011,4.947,-5.972,13.225,3.450,23.321,11.032,-3.401
2019.07.22 14:02:35.416,62.644,46.508,16.662,14.634,46.298,0.969,-0.561,0.284,13.700,-13.930,-1.890,0.053,6.051,-7.388,15.845,1.023,22.276,9.758,-2.225
2019.07.22 14:02:35.420,63.362,43.611,18.480,10.314,39.945,0.480,-4.886,-2.608,12.939,-19.622,-4.006,-0.667,5.375,-6.134,16.854,3.399,21.815,8.627,-1.858
2019.07.22 14:02:35.424,64.097,41.717,19.433,8.178,34.266,2.062,-8.735,-3.766,11.699,-21.351,-6.531,-0.897,1.421,-3.067,14.011,7.417,21.575,8.096,-2.535
2019.07.22 14:02:35.428,63.750,40.109,18.921,7.934,30.283,3.263,-10.690,-3.207,9.411,-19.256,-9.769,-1.039,-5.157,-0.642,7.092,8.161,20.901,8.297,-3.876
2019.07.22 14:02:35.432,61.831,38.008,17.132,8.192,27.405,2.466,-10.698,-2.201,5.799,-16.127,-13.549,-1.768,-11.540,-1.137,-1.600,3.202,19.319,9.006,-5.132
2019.07.22 14:02:35.436,58.538,34.853,14.866,7.340,24.578,-0.398,-10.097,-2.241,1.230,-15.156,-17.110,-3.460,-14.604,-5.003,-8.621,-5.204,16.907,9.832,-5.712
2019.07.22 14:02:35.440,54.395,30.522,12.990,4.642,21.380,-4.266,-10.408,-3.819,-3.295,-17.663,-19.495,-5.871,-13.296,-10.590,-11.693,-11.841,14.319,10.471,-5.582
2019.07.22 14:02:35.444,49.912,25.502,11.934,0.777,18.261,-7.860,-11.815,-6.036,-6.591,-22.447,-20.152,-8.308,-9.588,-15.401,-11.131,-12.764,12.422,10.856,-5.246
2019.07.22 14:02:35.448,45.578,20.857,11.560,-2.593,15.976,-10.375,-12.739,-7.387,-7.905,-27.044,-19.219,-10.119,-7.110,-17.868,-9.275,-8.534,11.782,11.090,-5.305
2019.07.22 14:02:35.452,42.052,17.811,11.418,-3.969,14.876,-11.618,-11.148,-7.063,-7.316,-29.692,-17.289,-11.117,-8.402,-18.297,-8.416,-3.755,12.322,11.246,-5.973
2019.07.22 14:02:35.456,40.137,17.048,11.148,-3.061,14.712,-11.817,-6.712,-5.667,-5.657,-30.415,-14.891,-11.617,-12.918,-18.386,-8.946,-3.352,13.384,11.235,-6.903
2019.07.22 14:02:35.460,40.303,18.147,10.714,-0.986,14.977,-11.426,-1.919,-4.746,-4.033,-30.573,-12.162,-12.130,-17.366,-19.810,-9.230,-8.674,14.159,10.844,-7.468
2019.07.22 14:02:35.464,42.083,19.667,10.371,0.526,15.335,-11.036,-0.762,-5.504,-3.251,-31.492,-8.982,-12.958,-18.160,-23.030,-7.275,-16.615,14.172,9.953,-7.243
2019.07.22 14:02:35.468,43.941,19.993,10.423,0.329,15.695,-11.250,-5.476,-7.791,-3.504,-33.422,-5.418,-14.003,-14.107,-27.149,-2.720,-22.348,13.496,8.716,-6.320
2019.07.22 14:02:35.472,44.008,18.419,10.954,-1.409,15.943,-12.417,-13.659,-10.178,-4.461,-35.583,-2.011,-14.873,-7.273,-30.766,2.561,-23.272,12.574,7.553,-5.216
2019.07.22 14:02:35.476,41.341,15.660,11.706,-3.439,15.744,-14.355,-18.299,-11.063,-5.611,-37.058,0.402,-15.175,-1.431,-33.000,5.785,-20.857,11.827,6.910,-4.496
2019.07.22 14:02:35.480,36.788,13.302,12.140,-4.389,14.720,-16.359,-11.391,-9.900,-6.626,-37.613,1.218,-14.762,0.595,-33.920,5.389,-18.987,11.378,6.964,-4.413
2019.07.22 14:02:35.484,32.687,12.546,11.668,-3.720,12.887,-17.606,10.885,-7.581,-7.519,-37.751,0.502,-13.817,-1.341,-34.174,2.180,-20.398,11.076,7.494,-4.843
2019.07.22 14:02:35.488,31.391,13.216,9.923,-2.013,10.839,-17.720,44.917,-5.719,-8.574,-38.095,-1.054,-12.760,-5.112,-34.314,-1.442,-24.354,10.765,8.017,-5.479
2019.07.22 14:02:35.492,33.606,13.891,6.951,-0.488,9.377,-17.049,80.843,-5.468,-10.107,-38.754,-2.622,-12.075,-8.261,-34.435,-3.480,-27.524,10.473,8.099,-6.097
2019.07.22 14:02:35.496,37.750,13.147,3.228,-0.177,8.782,-16.386,107.703,-6.816,-12.225,-39.266,-3.764,-12.132,-9.783,-34.370,-3.836,-27.181,10.358,7.610,-6.637
2019.07.22 14:02:35.500,40.902,10.965,-0.498,-1.367,8.407,-16.313,119.309,-8.816,-14.670,-39.095,-4.580,-13.053,-10.359,-34.110,-4.059,-23.847,10.451,6.764,-7.110
2019.07.22 14:02:35.504,40.759,9.109,-3.449,-3.586,7.106,-16.677,117.091,-10.443,-16.819,-38.137,-5.378,-14.655,-11.137,-33.994,-5.651,-21.014,10.507,5.943,-7.465
2019.07.22 14:02:35.508,37.229,10.031,-4.985,-6.004,4.286,-16.612,108.228,-11.296,-17.862,-36.752,-6.222,-16.499,-12.322,-34.463,-8.469,-22.149,10.184,5.470,-7.617
2019.07.22 14:02:35.512,32.557,15.001,-4.645,-7.866,0.768,-15.110,100.655,-11.624,-17.117,-35.347,-6.780,-18.056,-12.916,-35.612,-10.659,-27.516,9.450,5.488,-7.588
2019.07.22 14:02:35.516,29.887,22.835,-2.151,-8.728,-1.391,-11.714,98.455,-11.814,-14.376,-33.955,-6.588,-18.938,-11.755,-36.972,-10.210,-33.557,8.848,5.979,-7.605
2019.07.22 14:02:35.520,31.272,30.253,2.510,-8.517,-0.172,-6.847,100.550,-11.907,-10.098,-32.261,-5.505,-19.032,-8.804,-37.727,-6.766,-35.412,9.254,6.839,-7.971
2019.07.22 14:02:35.524,36.438,33.699,8.855,-7.533,4.897,-1.601,102.974,-11.631,-5.317,-30.033,-3.896,-18.491,-5.459,-37.211,-2.119,-30.592,11.196,7.898,-8.776
2019.07.22 14:02:35.528,43.042,31.419,15.711,-6.429,12.152,2.775,102.528,-10.847,-1.271,-27.518,-2.406,-17.556,-3.547,-35.320,1.032,-20.905,14.228,8.885,-9.694
2019.07.22 14:02:35.532,48.065,24.405,21.322,-6.042,18.664,5.326,98.985,-9.912,1.088,-25.377,-1.508,-16.402,-3.899,-32.586,1.027,-11.238,16.913,9.441,-10.111
2019.07.22 14:02:35.536,49.389,15.649,23.896,-6.998,21.988,5.580,94.550,-9.532,1.426,-24.219,-1.245,-15.112,-5.769,-29.940,-1.743,-6.278,17.590,9.243,-9.559
2019.07.22 14:02:35.540,46.625,8.311,22.394,-9.248,21.531,3.532,91.533,-10.181,0.058,-24.143,-1.365,-13.815,-7.586,-28.356,-5.503,-7.722,15.443,8.208,-8.148
2019.07.22 14:02:35.544,40.947,4.064,17.072,-11.884,18.577,-0.382,90.383,-11.617,-2.308,-24.742,-1.695,-12.790,-8.356,-28.516,-8.729,-13.866,11.099,6.601,-6.598
2019.07.22 14:02:35.548,34.300,2.589,9.399,-13.529,15.061,-5.286,89.575,-12.967,-4.930,-25.537,-2.349,-12.392,-8.437,-30.531,-11.234,-21.391,6.265,4.922,-5.788
2019.07.22 14:02:35.552,28.535,2.340,1.343,-13.127,12.137,-9.972,87.137,-13.370,-7.269,-26.375,-3.555,-12.761,-9.023,-33.758,-13.806,-27.593,2.627,3.615,-6.103
2019.07.22 14:02:35.556,24.848,1.855,-5.487,-10.654,9.674,-13.218,82.325,-12.640,-9.052,-27.383,-5.263,-13.570,-10.837,-36.830,-16.849,-31.344,0.843,2.805,-7.095
2019.07.22 14:02:35.560,23.563,0.751,-10.291,-7.157,6.978,-14.245,76.079,-11.376,-10.207,-28.473,-6.922,-14.075,-13.245,-38.092,-19.449,-32.576,0.351,2.290,-7.751
2019.07.22 14:02:35.564,24.229,-0.132,-12.927,-4.058,3.974,-13.018,70.113,-10.420,-10.797,-28.949,-7.720,-13.553,-14.625,-36.398,-19.853,-31.351,0.117,1.791,-7.221
2019.07.22 14:02:35.568,25.956,0.639,-13.462,-2.173,1.742,-10.171,65.625,-10.125,-10.976,-27.701,-7.153,-11.858,-13.718,-31.910,-17.064,-27.700,-0.357,1.263,-5.471
2019.07.22 14:02:35.572,27.941,4.132,-11.990,-1.201,1.866,-6.596,62.727,-10.094,-10.940,-24.015,-5.462,-9.656,-10.766,-26.270,-12.093,-22.277,-0.614,0.974,-3.355
2019.07.22 14:02:35.576,29.906,10.246,-8.926,-0.076,5.100,-3.028,60.881,-9.599,-10.847,-18.362,-3.552,-8.074,-7.449,-21.863,-7.650,-16.826,0.231,1.258,-2.034
2019.07.22 14:02:35.580,32.131,17.474,-5.422,2.076,10.489,0.084,59.643,-8.310,-10.725,-12.428,-2.418,-7.958,-5.643,-20.442,-6.336,-13.564,2.487,2.140,-2.174
2019.07.22 14:02:35.584,34.957,23.388,-3.270,5.143,15.720,2.389,58.941,-6.648,-10.508,-8.200,-2.505,-9.263,-6.038,-22.009,-8.754,-13.724,5.299,3.151,-3.506
2019.07.22 14:02:35.588,38.093,25.757,-4.037,8.001,18.523,3.458,58.685,-5.423,-10.193,-6.689,-3.483,-11.066,-7.739,-24.778,-13.080,-16.538,7.060,3.566,-5.081
2019.07.22 14:02:35.592,40.376,23.831,-7.879,9.308,18.076,2.908,58.337,-5.059,-10.028,-7.270,-4.584,-12.232,-9.135,-26.346,-16.460,-19.759,6.558,2.905,-5.986
2019.07.22 14:02:35.596,40.403,19.022,-13.029,8.485,15.392,0.812,57.062,-5.104,-10.507,-8.171,-5.181,-12.249,-9.222,-25.304,-17.107,-21.480,3.964,1.337,-5.987
2019.07.22 14:02:35.600,37.711,14.368,-16.572,6.140,12.468,-2.015,54.507,-4.541,-12.058,-7.797,-5.157,-11.586,-8.276,-22.151,-15.404,-21.712,0.845,-0.364,-5.609
2019.07.22 14:02:35.604,33.533,12.822,-16.199,3.645,10.867,-4.238,51.448,-2.693,-14.604,-5.867,-4.811,-11.283,-7.384,-18.825,-13.249,-22.267,-0.853,-1.300,-5.643
2019.07.22 14:02:35.608,30.277,15.327,-11.750,2.225,10.808,-4.736,49.573,0.022,-17.321,-3.526,-4.476,-12.085,-7.366,-17.208,-12.321,-24.887,-0.079,-1.031,-6.487
2019.07.22 14:02:35.612,29.827,20.028,-5.361,2.242,11.322,-3.359,50.369,2.178,-18.908,-2.355,-4.228,-13.802,-8.077,-17.746,-12.810,-29.244,2.739,0.180,-7.836
2019.07.22 14:02:35.616,31.896,23.429,-0.038,3.151,11.211,-1.075,53.971,2.293,-18.291,-3.098,-3.921,-15.399,-8.671,-19.221,-13.613,-32.687,6.199,1.623,-8.931
2019.07.22 14:02:35.620,33.910,22.915,2.316,4.020,10.015,0.676,58.949,-0.043,-15.341,-5.084,-3.444,-15.759,-8.472,-19.808,-13.625,-32.203,9.021,2.674,-9.135
2019.07.22 14:02:35.624,32.846,18.897,1.942,4.141,8.304,0.974,63.307,-3.776,-11.082,-6.775,-2.908,-14.518,-7.606,-18.560,-12.862,-27.069,10.821,3.179,-8.384
2019.07.22 14:02:35.628,27.830,14.837,0.606,3.289,7.209,-0.005,65.879,-7.060,-7.165,-6.968,-2.556,-12.321,-6.816,-16.126,-12.357,-19.902,12.009,3.408,-7.177
2019.07.22 14:02:35.632,21.367,14.867,-0.093,1.595,7.642,-1.281,66.989,-8.511,-4.934,-5.673,-2.503,-10.327,-6.711,-14.177,-13.028,-14.995,13.004,3.672,-6.171
2019.07.22 14:02:35.636,17.912,20.560,-0.027,-0.666,9.751,-1.953,67.841,-8.085,-4.680,-4.036,-2.590,-9.368,-7.202,-14.033,-14.649,-15.141,13.574,3.963,-5.704
2019.07.22 14:02:35.640,20.510,29.276,-0.395,-3.114,12.861,-1.918,69.222,-6.921,-5.607,-3.413,-2.514,-9.421,-7.691,-15.631,-15.978,-19.466,12.927,3.938,-5.614
2019.07.22 14:02:35.644,27.999,35.529,-2.339,-5.140,15.807,-1.828,70.697,-6.329,-6.489,-4.373,-2.133,-9.790,-7.802,-17.654,-15.952,-24.125,10.500,3.257,-5.435
2019.07.22 14:02:35.648,35.158,34.619,-5.620,-5.933,17.402,-2.365,71.034,-6.760,-6.525,-6.395,-1.633,-9.776,-7.899,-18.670,-14.832,-25.367,6.727,1.953,-4.784
2019.07.22 14:02:35.652,36.076,25.958,-8.592,-4.826,16.871,-3.522,69.444,-7.563,-5.804,-8.430,-1.390,-9.262,-8.821,-18.318,-14.163,-22.503,3.048,0.493,-3.644
2019.07.22 14:02:35.656,28.469,13.662,-9.559,-1.827,14.177,-4.572,66.498,-7.679,-5.072,-9.795,-1.637,-8.751,-11.023,-17.541,-15.488,-18.356,1.060,-0.547,-2.354
2019.07.22 14:02:35.660,15.708,3.936,-8.318,2.135,10.145,-4.755,63.819,-6.623,-5.062,-10.660,-2.271,-8.838,-13.912,-17.683,-18.915,-16.819,1.443,-0.936,-1.367
2019.07.22 14:02:35.664,4.863,1.169,-6.483,5.576,6.268,-4.043,62.757,-4.912,-5.885,-11.743,-2.961,-9.614,-16.068,-19.203,-22.822,-19.565,3.508,-0.972,-0.961
2019.07.22 14:02:35.668,2.041,5.564,-6.167,7.310,4.121,-3.221,63.217,-3.573,-6.905,-13.510,-3.454,-10.484,-16.231,-21.097,-25.041,-24.629,5.745,-1.231,-1.092
2019.07.22 14:02:35.672,8.401,13.851,-8.107,7.219,4.603,-3.139,63.724,-3.184,-7.111,-15.565,-3.746,-10.581,-14.238,-21.539,-24.526,-28.035,6.948,-2.070,-1.437
2019.07.22 14:02:35.676,19.736,22.194,-10.835,6.329,7.432,-3.784,62.744,-3.298,-5.713,-16.770,-3.909,-9.421,-11.096,-19.307,-22.092,-27.100,7.033,-3.287,-1.573
2019.07.22 14:02:35.680,29.798,28.840,-11.710,6.095,11.293,-4.059,60.141,-2.803,-2.564,-16.041,-3.763,-7.294,-8.125,-14.869,-19.606,-22.668,6.961,-4.234,-1.191
2019.07.22 14:02:35.684,34.700,34.475,-9.029,7.366,14.609,-2.609,57.465,-0.942,1.747,-13.240,-2.799,-5.105,-5.936,-10.260,-18.374,-18.425,7.864,-4.301,-0.255
2019.07.22 14:02:35.688,35.069,40.364,-3.500,9.807,16.458,0.927,56.714,1.853,6.129,-9.465,-0.561,-3.786,-4.162,-7.778,-18.140,-17.864,10.124,-3.390,0.951
2019.07.22 14:02:35.692,34.544,46.228,2.184,12.176,17.000,5.286,58.558,4.085,9.385,-6.473,2.742,-3.726,-2.132,-8.397,-17.541,-21.407,13.104,-2.012,1.925
2019.07.22 14:02:35.696,36.188,49.900,5.358,13.253,17.131,8.242,61.549,4.257,10.655,-5.584,5.974,-4.606,0.181,-11.050,-15.536,-26.010,15.692,-0.921,2.190
2019.07.22 14:02:35.700,39.916,49.111,5.350,12.698,17.668,8.121,63.054,2.094,9.786,-6.813,7.578,-5.680,1.900,-13.307,-12.491,-27.544,17.151,-0.566,1.576
2019.07.22 14:02:35.704,42.951,43.764,3.817,11.227,18.721,5.012,61.251,-1.084,7.460,-8.857,6.623,-6.285,1.975,-12.989,-9.917,-24.020,17.585,-0.784,0.367
2019.07.22 14:02:35.708,42.637,36.527,3.230,10.008,19.722,0.684,56.585,-3.204,4.934,-9.984,3.630,-6.210,0.265,-9.657,-9.148,-17.117,17.688,-0.957,-0.808
2019.07.22 14:02:35.712,38.969,31.059,4.813,9.781,20.004,-2.754,51.491,-2.917,3.408,-9.243,0.430,-5.760,-2.094,-4.950,-10.178,-10.908,18.049,-0.503,-1.344
2019.07.22 14:02:35.716,34.586,29.267,7.665,10.368,19.376,-4.384,48.587,-0.610,3.312,-7.166,-0.994,-5.527,-3.496,-1.577,-11.739,-8.903,18.612,0.676,-1.047
2019.07.22 14:02:35.720,32.304,29.958,9.705,10.876,18.198,-4.972,48.762,1.843,4.000,-5.431,0.104,-6.033,-3.220,-1.601,-12.523,-11.726,18.712,2.107,-0.266
2019.07.22 14:02:35.724,32.494,30.110,9.530,10.389,16.957,-6.049,50.650,2.430,4.188,-5.679,2.678,-7.425,-2.133,-5.104,-12.396,-17.059,17.626,3.072,0.363
2019.07.22 14:02:35.728,32.720,27.714,7.555,8.597,15.809,-8.387,51.815,0.463,2.929,-8.286,4.662,-9.329,-1.998,-10.080,-12.433,-21.604,15.172,3.092,0.408
2019.07.22 14:02:35.732,30.037,23.732,5.486,5.940,14.546,-11.159,50.606,-2.951,0.477,-11.970,4.525,-10.913,-3.882,-13.602,-13.733,-23.345,11.907,2.231,-0.002
2019.07.22 14:02:35.736,23.911,21.377,4.697,3.259,12.999,-12.500,47.152,-5.761,-1.699,-14.588,2.437,-11.194,-6.999,-13.570,-16.101,-22.419,8.816,1.015,-0.266
2019.07.22 14:02:35.740,17.097,23.189,5.020,1.271,11.399,-11.002,42.774,-6.499,-1.910,-14.629,0.123,-9.484,-9.099,-10.006,-17.873,-20.252,6.752,0.085,0.178
2019.07.22 14:02:35.744,13.527,28.336,5.028,0.269,10.218,-6.896,38.459,-5.336,0.383,-12.378,-0.472,-5.796,-8.194,-5.123,-17.142,-17.988,6.027,-0.187,1.307
2019.07.22 14:02:35.748,14.878,32.483,3.536,0.173,9.536,-1.946,33.776,-3.900,3.873,-9.914,1.332,-0.937,-4.269,-2.154,-13.342,-15.633,6.363,0.148,2.362
2019.07.22 14:02:35.752,18.738,30.546,0.894,0.776,8.531,1.849,27.207,-4.039,6.041,-9.851,4.479,3.826,0.515,-3.624,-7.783,-12.455,7.136,0.728,2.295
2019.07.22 14:02:35.756,20.022,20.261,-1.147,1.942,5.749,3.663,17.617,-6.470,4.837,-13.680,7.077,7.405,3.377,-10.069,-2.654,-8.050,7.702,1.162,0.523
2019.07.22 14:02:35.760,14.623,3.830,-0.953,3.592,0.175,4.251,5.603,-10.312,0.234,-20.791,7.893,9.432,3.068,-19.897,0.645,-3.041,7.618,1.251,-2.578
2019.07.22 14:02:35.764,2.373,-13.570,1.412,5.563,-7.662,5.100,-6.427,-13.766,-5.505,-28.837,7.256,10.329,0.853,-30.383,2.364,1.183,6.731,1.041,-5.819
2019.07.22 14:02:35.768,-13.034,-27.171,3.972,7.499,-15.539,7.104,-15.561,-15.360,-9.134,-35.120,6.658,10.863,-0.493,-39.110,3.718,3.365,5.169,0.706,-7.940
2019.07.22 14:02:35.772,-26.981,-35.313,4.250,8.908,-20.736,9.891,-20.089,-14.813,-8.471,-38.008,7.434,11.489,1.093,-44.936,5.366,3.130,3.263,0.378,-8.421
2019.07.22 14:02:35.776,-37.297,-39.618,1.163,9.370,-21.882,12.287,-20.357,-12.952,-3.746,-37.468,9.634,11.997,5.308,-48.003,6.555,1.103,1.387,0.040,-7.767
2019.07.22 14:02:35.780,-45.335,-43.013,-4.196,8.756,-20.111,13.413,-18.235,-10.894,2.636,-34.538,11.984,11.749,9.715,-48.956,5.814,-1.514,-0.256,-0.455,-7.074
2019.07.22 14:02:35.784,-54.135,-47.547,-9.538,7.315,-18.574,13.399,-15.747,-9.233,7.685,-30.354,12.938,10.311,11.658,-48.120,2.644,-3.440,-1.801,-1.277,-7.202
2019.07.22 14:02:35.788,-65.459,-53.761,-13.271,5.575,-20.506,13.101,-13.942,-7.856,9.600,-25.570,11.921,7.957,10.303,-45.287,-1.408,-3.637,-3.696,-2.500,-8.167
2019.07.22 14:02:35.792,-78.319,-61.691,-15.709,4.084,-27.146,13.148,-12.739,-6.418,8.524,-20.524,9.769,5.617,7.187,-40.248,-3.442,-1.520,-6.436,-4.048,-9.211
2019.07.22 14:02:35.796,-90.169,-71.998,-18.586,3.105,-36.960,13.207,-11.596,-4.937,5.959,-15.760,8.050,4.260,4.910,-33.516,-1.308,2.744,-10.205,-5.725,-9.446
2019.07.22 14:02:35.800,-99.508,-85.757,-23.362,2.433,-46.667,12.184,-10.252,-3.936,3.490,-12.211,7.886,4.220,5.098,-26.533,4.604,7.991,-14.661,-7.305,-8.564
2019.07.22 14:02:35.804,-107.419,-102.912,-29.776,1.431,-53.302,9.172,-8.896,-4.013,1.879,-10.702,9.210,4.994,7.285,-21.050,11.450,12.269,-19.056,-8.631,-7.074
2019.07.22 14:02:35.808,-116.586,-120.934,-35.900,-0.675,-55.865,4.335,-7.755,-5.249,1.075,-11.164,10.987,5.705,9.513,-18.052,15.945,13.729,-22.621,-9.664,-5.913
2019.07.22 14:02:35.812,-128.604,-135.332,-39.599,-4.358,-55.512,-1.070,-6.633,-7.038,0.853,-12.324,12.091,5.847,10.017,-17.076,16.695,11.841,-24.971,-10.468,-5.745
2019.07.22 14:02:35.816,-141.965,-142.057,-40.158,-9.446,-54.374,-5.534,-4.930,-8.515,1.315,-12.327,12.076,5.702,8.540,-16.481,14.954,8.018,-26.230,-11.156,-6.515
2019.07.22 14:02:35.820,-152.605,-140.120,-38.730,-15.083,-54.023,-8.275,-2.161,-9.211,2.753,-9.939,11.255,6.071,6.258,-14.551,13.228,4.968,-26.828,-11.820,-7.544
2019.07.22 14:02:35.824,-156.723,-132.256,-37.319,-20.072,-54.683,-9.519,1.501,-9.357,5.076,-5.427,10.194,7.564,4.553,-10.647,13.005,4.985,-27.142,-12.491,-8.064
2019.07.22 14:02:35.828,-153.668,-123.007,-37.230,-23.411,-55.541,-9.931,5.186,-9.531,7.442,-0.373,9.199,10.025,3.840,-5.556,13.620,8.347,-27.271,-13.134,-7.740
2019.07.22 14:02:35.832,-146.577,-115.661,-38.276,-24.719,-55.676,-9.785,7.876,-9.959,8.604,3.452,8.262,12.613,3.471,-0.788,13.246,13.092,-27.096,-13.666,-6.815
2019.07.22 14:02:35.836,-140.286,-110.473,-39.278,-24.274,-54.779,-8.701,9.129,-10.105,7.790,5.322,7.453,14.461,2.740,2.607,11.066,16.490,-26.521,-14.000,-5.822
2019.07.22 14:02:35.840,-138.151,-105.509,-39.245,-22.685,-53.194,-6.195,9.409,-8.977,5.404,5.931,7.229,15.374,1.966,4.815,8.605,17.180,-25.639,-14.074,-5.169
2019.07.22 14:02:35.844,-140.190,-99.214,-38.136,-20.436,-51.461,-2.510,9.783,-5.964,2.930,6.683,8.240,15.958,2.557,7.045,8.850,16.304,-24.664,-13.879,-4.941
2019.07.22 14:02:35.848,-143.730,-92.375,-36.611,-17.658,-49.891,1.143,11.222,-1.531,2.029,8.544,10.693,17.064,5.893,10.538,13.752,16.666,-23.696,-13.463,-5.034
2019.07.22 14:02:35.852,-145.766,-87.696,-35.200,-14.270,-48.507,3.277,14.010,2.860,3.450,11.399,13.842,18.992,11.915,15.582,22.178,20.446,-22.564,-12.913,-5.449
2019.07.22 14:02:35.856,-145.052,-87.341,-33.814,-10.338,-47.273,3.251,17.617,5.597,6.555,14.333,16.145,21.112,18.680,21.250,30.160,27.181,-20.951,-12.319,-6.418
2019.07.22 14:02:35.860,-142.452,-90.610,-32.099,-6.338,-46.277,1.854,21.040,5.956,9.745,16.455,16.126,22.243,23.349,25.981,33.425,33.596,-18.737,-11.748,-8.238
2019.07.22 14:02:35.864,-139.672,-93.880,-30.231,-3.074,-45.644,0.758,23.311,4.520,11.432,17.438,13.349,21.485,23.948,28.499,30.302,35.516,-16.299,-11.240,-10.947
2019.07.22 14:02:35.868,-137.688,-93.024,-29.218,-1.301,-45.299,1.210,23.900,2.692,10.873,17.345,8.785,18.877,20.593,28.383,22.760,30.551,-14.452,-10.830,-14.119
2019.07.22 14:02:35.872,-136.175,-86.408,-30.203,-1.301,-44.865,2.996,22.881,1.704,8.371,16.058,4.256,15.396,15.265,25.995,14.822,19.727,-14.002,-10.576,-16.990
2019.07.22 14:02:35.876,-134.091,-76.036,-33.267,-2.740,-43.849,4.567,20.872,1.888,4.878,13.059,1.348,12.330,10.365,22.039,9.651,7.006,-15.168,-10.542,-18.825
2019.07.22 14:02:35.880,-130.642,-65.919,-36.837,-4.867,-41.965,4.224,18.823,2.716,1.403,7.931,0.544,10.569,7.145,17.220,7.607,-2.838,-17.304,-10.745,-19.280
2019.07.22 14:02:35.884,-125.692,-59.013,-38.441,-6.904,-39.318,1.444,17.644,3.457,-1.390,1.171,1.138,10.286,5.151,12.250,6.634,-6.578,-19.174,-11.091,-18.504
2019.07.22 14:02:35.888,-119.488,-55.192,-36.405,-8.340,-36.278,-2.751,17.797,3.827,-3.282,-5.594,1.893,11.144,2.970,8.008,4.417,-3.770,-19.641,-11.385,-16.964
2019.07.22 14:02:35.892,-112.240,-51.775,-31.194,-8.987,-33.199,-6.627,19.022,4.068,-4.409,-10.434,1.895,12.687,-0.412,5.451,0.430,3.540,-18.351,-11.429,-15.161
2019.07.22 14:02:35.896,-104.126,-45.961,-25.257,-8.819,-30.230,-9.044,20.440,4.478,-5.108,-12.488,1.021,14.539,-4.688,5.170,-3.725,12.114,-15.947,-11.178,-13.462
2019.07.22 14:02:35.900,-95.661,-37.056,-21.387,-7.798,-27.369,-10.140,21.075,4.911,-5.718,-12.709,-0.184,16.311,-8.368,6.912,-5.746,18.969,-13.644,-10.808,-12.112
2019.07.22 14:02:35.904,-87.819,-26.697,-20.803,-5.836,-24.627,-10.860,20.502,4.810,-6.334,-13.165,-0.992,17.478,-9.782,9.556,-4.459,22.404,-12.447,-10.619,-11.324
2019.07.22 14:02:35.908,-81.511,-17.108,-22.405,-2.884,-22.070,-11.827,19.172,3.785,-6.622,-15.284,-0.931,17.555,-8.162,11.736,-0.576,22.416,-12.498,-10.799,-11.292
2019.07.22 14:02:35.912,-76.694,-9.076,-23.721,0.931,-19.660,-12.608,18.116,2.230,-5.916,-18.470,0.058,16.509,-4.091,12.707,4.020,20.489,-12.983,-11.209,-12.082
2019.07.22 14:02:35.916,-71.968,-1.427,-22.713,5.251,-17.057,-12.071,18.193,1.307,-3.686,-20.378,1.714,15.053,0.863,12.759,7.605,18.745,-12.628,-11.372,-13.495
2019.07.22 14:02:35.920,-65.211,7.654,-19.010,9.541,-13.648,-9.527,19.447,2.181,-0.105,-18.852,3.627,14.356,5.004,12.781,9.387,18.644,-10.470,-10.743,-15.070
2019.07.22 14:02:35.924,-54.929,18.776,-13.699,13.210,-8.858,-5.641,21.100,5.033,3.756,-14.033,5.400,15.238,7.292,13.284,9.335,19.857,-6.402,-9.094,-16.275
2019.07.22 14:02:35.928,-41.309,30.655,-8.068,15.762,-2.527,-2.223,22.208,8.671,6.443,-8.809,6.787,17.379,7.668,13.711,7.619,20.179,-1.195,-6.744,-16.760
2019.07.22 14:02:35.932,-26.110,41.183,-2.512,16.942,4.955,-0.983,22.471,11.159,7.116,-6.977,7.823,19.252,6.873,12.695,4.457,16.910,3.968,-4.453,-16.512
2019.07.22 14:02:35.936,-11.488,49.234,3.435,16.865,12.887,-2.247,22.501,11.071,6.278,-10.373,8.856,18.979,5.909,9.166,0.503,9.069,8.106,-2.987,-15.785
2019.07.22 14:02:35.940,1.288,55.564,10.094,16.047,20.638,-4.690,23.299,8.449,5.557,-17.229,10.344,15.593,5.442,3.443,-2.884,-1.167,10.835,-2.664,-14.902
2019.07.22 14:02:35.944,12.241,62.055,16.701,15.289,27.846,-6.365,25.332,4.746,6.518,-23.213,12.454,9.782,5.405,-2.646,-4.196,-9.202,12.371,-3.170,-14.090
2019.07.22 14:02:35.948,22.048,70.006,21.551,15.384,34.279,-6.201,28.001,1.792,9.321,-24.545,14.745,3.506,5.014,-6.843,-2.995,-10.936,13.251,-3.787,-13.441
2019.07.22 14:02:35.952,31.113,79.002,23.223,16.772,39.580,-4.775,29.974,0.593,12.321,-20.855,16.240,-1.225,3.241,-7.981,-0.751,-5.992,14.018,-3.862,-12.995
2019.07.22 14:02:35.956,39.234,87.303,21.863,19.333,43.254,-3.755,30.163,0.853,13.083,-15.550,16.008,-3.521,-0.470,-6.772,-0.268,1.285,15.047,-3.186,-12.781
2019.07.22 14:02:35.960,46.049,93.289,19.370,22.451,45.002,-4.498,28.561,1.523,10.189,-13.302,13.898,-3.823,-5.663,-5.190,-3.758,4.246,16.520,-2.035,-12.755
2019.07.22 14:02:35.964,51.628,96.607,18.167,25.326,45.152,-6.978,26.225,1.829,4.486,-16.550,10.861,-3.093,-10.924,-4.920,-10.925,-1.510,18.422,-0.898,-12.692
2019.07.22 14:02:35.968,56.423,98.049,19.455,27.320,44.710,-9.899,24.409,1.907,-1.279,-23.664,8.490,-1.740,-14.590,-6.083,-18.707,-14.649,20.473,-0.128,-12.208
2019.07.22 14:02:35.972,60.575,98.413,22.312,28.135,44.838,-11.845,23.547,2.535,-4.276,-30.186,8.002,0.741,-15.723,-7.279,-23.143,-28.407,22.067,0.211,-10.972
2019.07.22 14:02:35.976,63.355,97.594,24.351,27.764,46.091,-12.449,22.935,4.254,-3.575,-32.122,9.370,5.086,-14.679,-6.888,-22.110,-34.789,22.375,0.249,-9.019
2019.07.22 14:02:35.980,63.594,94.836,23.455,26.345,48.013,-12.581,21.411,6.697,-0.793,-28.756,11.286,11.152,-12.821,-4.536,-16.844,-29.839,20.699,0.095,-6.885
2019.07.22 14:02:35.984,60.990,89.955,19.278,24.101,49.493,-13.424,18.468,8.743,1.117,-22.868,12.081,17.455,-11.540,-1.470,-10.977,-16.179,16.918,-0.266,-5.384
2019.07.22 14:02:35.988,57.175,84.282,13.438,21.405,49.641,-15.267,14.884,9.399,0.062,-18.337,10.941,21.896,-11.263,0.537,-7.789,-0.992,11.750,-0.880,-5.106
2019.07.22 14:02:35.992,55.273,80.237,8.365,18.847,48.495,-17.080,12.313,8.652,-3.674,-17.158,8.548,23.208,-11.203,0.835,-7.806,9.035,6.556,-1.678,-5.975
2019.07.22 14:02:35.996,57.882,79.670,5.764,17.099,46.952,-17.299,12.121,7.538,-7.710,-18.206,6.613,21.928,-10.068,0.661,-8.661,12.001,2.725,-2.441,-7.218
2019.07.22 14:02:36.000,64.852,82.283,5.827,16.575,45.977,-15.182,14.359,7.327,-9.411,-18.603,6.647,19.993,-7.200,2.218,-7.296,11.180,0.986,-2.960,-7.835
2019.07.22 14:02:36.004,72.780,85.558,7.584,17.108,45.733,-11.607,17.684,8.443,-7.876,-16.407,8.865,19.168,-3.294,6.684,-2.735,11.466,1.083,-3.261,-7.281
2019.07.22 14:02:36.008,76.968,86.407,9.901,17.951,45.425,-8.602,20.246,10.034,-4.582,-12.350,12.038,19.533,-0.103,12.747,2.842,14.870,2.048,-3.655,-5.871
2019.07.22 14:02:36.012,74.654,83.363,12.212,18.213,44.015,-7.923,20.881,10.575,-2.249,-9.259,14.362,19.310,0.673,16.987,5.581,18.724,2.883,-4.524,-4.600
2019.07.22 14:02:36.016,67.150,77.614,14.504,17.499,41.262,-9.749,19.724,9.085,-2.821,-9.726,14.680,16.289,-1.466,16.058,2.838,17.954,3.204,-5.969,-4.485
2019.07.22 14:02:36.020,59.159,72.108,16.781,16.286,38.198,-12.515,17.892,6.021,-6.061,-13.982,13.144,9.782,-5.458,9.155,-4.806,9.508,3.412,-7.605,-5.887
2019.07.22 14:02:36.024,55.671,69.476,18.665,15.715,36.601,-14.001,16.608,3.145,-9.713,-19.700,10.887,1.550,-9.338,-1.100,-13.918,-4.683,4.316,-8.701,-8.288
2019.07.22 14:02:36.028,58.668,70.360,19.544,16.864,37.806,-12.877,16.475,2.427,-11.017,-23.809,9.073,-5.139,-11.423,-10.121,-20.612,-18.610,6.480,-8.602,-10.656
2019.07.22 14:02:36.032,66.021,73.322,19.097,19.978,41.738,-9.567,17.371,4.765,-8.432,-24.780,8.073,-7.691,-11.221,-14.208,-23.081,-26.255,9.764,-7.160,-12.118
2019.07.22 14:02:36.036,73.252,76.156,17.639,24.175,46.884,-5.872,18.821,9.416,-2.422,-23.559,7.385,-5.972,-9.513,-12.803,-22.406,-25.667,13.314,-4.850,-12.441
2019.07.22 14:02:36.040,76.701,77.423,15.913,27.851,51.187,-3.694,20.402,14.490,5.039,-22.491,6.231,-2.345,-7.691,-8.570,-21.247,-19.996,15.982,-2.520,-12.027
2019.07.22 14:02:36.044,75.697,77.056,14.508,29.521,53.239,-3.797,21.800,18.102,11.723,-23.221,4.294,0.045,-6.865,-5.353,-21.625,-14.875,16.870,-0.934,-11.496
2019.07.22 14:02:36.048,72.381,75.864,13.433,28.566,52.955,-5.434,22.644,19.371,16.226,-25.337,1.968,-0.572,-7.325,-5.555,-23.551,-14.355,15.708,-0.423,-11.232
2019.07.22 14:02:36.052,69.676,74.640,12.267,25.455,51.426,-6.961,22.460,18.657,18.313,-26.785,0.014,-3.617,-8.572,-8.807,-25.392,-18.438,12.910,-0.834,-11.230
2019.07.22 14:02:36.056,69.234,73.721,10.735,21.380,50.178,-6.932,20.994,17.038,18.549,-25.633,-1.034,-6.985,-9.754,-12.711,-25.423,-23.818,9.364,-1.742,-11.289
2019.07.22 14:02:36.060,70.800,73.173,9.170,17.602,50.375,-4.915,18.646,15.504,17.703,-21.683,-1.205,-8.858,-10.168,-14.875,-23.206,-26.816,6.076,-2.721,-11.288
2019.07.22 14:02:36.064,73.078,73.085,8.365,14.899,52.359,-1.610,16.563,14.461,16.359,-16.611,-0.943,-8.998,-9.573,-14.575,-19.815,-26.052,3.801,-3.512,-11.293
2019.07.22 14:02:36.068,74.957,73.475,8.894,13.382,55.593,1.687,16.083,13.772,14.877,-12.592,-0.697,-8.557,-8.244,-12.884,-16.925,-22.927,2.746,-4.031,-11.398
2019.07.22 14:02:36.072,76.020,73.884,10.461,12.657,58.897,3.844,17.820,13.155,13.517,-10.571,-0.639,-8.737,-6.811,-11.380,-15.669,-19.989,2.480,-4.312,-11.517
2019.07.22 14:02:36.076,76.201,73.269,11.900,12.180,60.875,4.464,21.081,12.542,12.547,-9.569,-0.724,-9.571,-5.948,-10.680,-16.107,-18.836,2.132,-4.452,-11.381
2019.07.22 14:02:36.080,75.354,70.629,11.911,11.581,60.495,4.019,24.153,12.152,12.213,-7.561,-0.951,-9.893,-6.015,-10.010,-17.500,-19.245,0.873,-4.581,-10.792
2019.07.22 14:02:36.084,73.401,65.989,9.999,10.848,57.656,3.537,25.367,12.293,12.645,-3.188,-1.500,-8.491,-6.789,-8.080,-18.929,-19.903,-1.552,-4.816,-9.899
2019.07.22 14:02:36.088,70.886,60.840,6.885,10.279,53.412,4.009,24.217,13.095,13.766,3.052,-2.561,-5.368,-7.493,-4.411,-19.688,-19.746,-4.577,-5.180,-9.212
2019.07.22 14:02:36.092,69.109,57.348,4.036,10.251,49.570,5.789,21.706,14.377,15.269,9.064,-4.009,-1.961,-7.166,0.042,-19.315,-18.651,-7.100,-5.558,-9.256
2019.07.22 14:02:36.096,69.346,56.760,2.673,10.909,47.724,8.325,19.654,15.707,16.691,12.626,-5.255,-0.086,-5.235,3.506,-17.516,-17.069,-8.173,-5.743,-10.109
2019.07.22 14:02:36.100,71.646,58.273,3.002,11.977,48.304,10.437,19.478,16.590,17.593,12.987,-5.494,-0.496,-1.907,4.693,-14.257,-15.260,-7.641,-5.597,-11.223
2019.07.22 14:02:36.104,74.397,59.482,4.235,12.880,50.341,11.082,21.328,16.685,17.808,11.405,-4.219,-2.290,1.909,3.736,-9.987,-13.005,-6.241,-5.183,-11.734
2019.07.22 14:02:36.108,75.372,58.269,5.335,13.173,52.213,10.187,24.154,15.981,17.618,10.283,-1.636,-3.662,5.157,2.044,-5.662,-10.014,-5.046,-4.758,-11.068
2019.07.22 14:02:36.112,73.641,54.692,5.847,12.988,52.879,8.944,26.561,14.868,17.676,11.538,1.362,-3.367,7.267,1.261,-2.374,-6.476,-4.621,-4.584,-9.381
2019.07.22 14:02:36.116,70.740,51.233,6.178,13.144,52.639,9.217,27.727,14.039,18.618,15.352,3.672,-1.664,8.412,2.189,-0.756,-3.041,-4.567,-4.711,-7.469
2019.07.22 14:02:36.120,69.881,50.994,7.158,14.678,52.788,12.288,27.741,14.217,20.568,20.069,4.572,0.042,9.204,4.444,-0.646,-0.232,-3.816,-4.891,-6.188
2019.07.22 14:02:36.124,73.566,55.141,9.289,18.051,54.419,17.747,27.218,15.777,22.909,23.243,4.058,0.496,10.101,6.981,-1.301,2.058,-1.517,-4.741,-5.842
2019.07.22 14:02:36.128,81.446,61.636,12.318,22.579,57.400,23.350,26.676,18.468,24.617,23.060,2.721,-0.314,11.017,8.892,-2.030,4.349,2.205,-4.019,-6.020
2019.07.22 14:02:36.132,90.260,66.388,15.442,26.606,60.449,26.118,26.217,21.432,25.012,19.239,1.323,-1.190,11.483,9.848,-2.713,6.736,6.201,-2.803,-6.028
2019.07.22 14:02:36.136,96.094,66.049,17.915,28.421,62.300,24.046,25.722,23.569,24.383,12.975,0.375,-0.840,11.177,9.947,-3.780,8.285,9.052,-1.429,-5.547
2019.07.22 14:02:36.140,97.243,60.333,19.532,27.346,62.964,17.307,25.248,24.068,23.936,6.106,-0.016,0.918,10.340,9.314,-5.710,7.444,10.036,-0.243,-4.962
2019.07.22 14:02:36.144,95.390,52.094,20.627,24.187,63.914,8.139,25.154,22.783,24.939,0.138,-0.035,2.927,9.669,7.918,-8.493,3.310,9.557,0.624,-5.067
2019.07.22 14:02:36.148,94.130,45.177,21.641,20.688,66.872,-0.520,25.805,20.233,27.665,-4.281,0.081,3.633,9.742,5.766,-11.543,-3.318,8.722,1.262,-6.364
2019.07.22 14:02:36.152,96.036,41.757,22.702,18.357,72.158,-6.684,27.128,17.255,30.962,-7.301,0.193,2.380,10.474,3.170,-14.110,-10.150,8.440,1.803,-8.530
2019.07.22 14:02:36.156,100.649,41.221,23.557,17.538,78.021,-10.152,28.468,14.586,32.901,-9.423,0.275,-0.019,11.098,0.713,-15.804,-14.922,8.783,2.226,-10.518
2019.07.22 14:02:36.160,105.004,41.271,23.882,17.411,81.681,-12.071,28.948,12.630,32.126,-11.100,0.329,-1.927,10.734,-1.144,-16.783,-17.015,9.097,2.343,-11.255
2019.07.22 14:02:36.164,106.139,40.109,23.604,16.855,81.349,-13.723,28.034,11.518,28.893,-12.590,0.293,-2.179,9.070,-2.456,-17.479,-17.779,8.708,1.978,-10.411
2019.07.22 14:02:36.168,103.484,37.818,22.923,15.441,77.639,-15.562,25.844,11.273,24.951,-14.011,0.011,-0.950,6.578,-3.744,-18.184,-19.194,7.545,1.162,-8.640
2019.07.22 14:02:36.172,99.157,35.874,22.005,13.708,73.171,-17.161,22.917,11.872,22.273,-15.382,-0.731,0.473,4.074,-5.482,-18.885,-21.960,6.144,0.144,-7.101
2019.07.22 14:02:36.176,96.089,35.459,20.676,12.554,70.637,-17.951,19.686,13.132,21.611,-16.533,-2.122,0.750,2.001,-7.525,-19.474,-24.716,5.054,-0.800,-6.629
2019.07.22 14:02:36.180,95.649,36.190,18.494,12.323,70.859,-17.964,16.140,14.584,21.980,-17.014,-4.194,-0.523,0.113,-9.050,-20.030,-25.142,4.237,-1.589,-7.180
2019.07.22 14:02:36.184,96.786,36.452,15.204,12.462,72.411,-17.877,12.011,15.558,21.532,-16.243,-6.707,-2.683,-2.148,-9.141,-20.820,-22.076,3.060,-2.371,-7.958
2019.07.22 14:02:36.188,97.252,34.969,11.222,12.094,73.042,-18.360,7.306,15.545,19.111,-13.964,-9.125,-4.678,-4.874,-7.588,-21.945,-16.807,0.937,-3.320,-8.077
2019.07.22 14:02:36.192,95.670,32.135,7.654,10.997,71.658,-19.360,2.666,14.590,15.280,-10.762,-10.772,-5.876,-7.239,-5.191,-22.993,-12.315,-1.957,-4.375,-7.212
2019.07.22 14:02:36.196,92.598,29.845,5.709,10.072,69.176,-20.044,-0.871,13.377,11.954,-8.153,-11.141,-6.290,-7.882,-3.269,-23.096,-10.988,-4.569,-5.191,-5.757
2019.07.22 14:02:36.200,89.760,29.896,5.864,10.765,67.574,-19.502,-2.592,12.848,10.944,-7.940,-10.211,-6.152,-5.910,-2.708,-21.512,-12.695,-5.654,-5.358,-4.414
2019.07.22 14:02:36.204,88.331,32.368,7.421,13.831,68.025,-17.625,-2.747,13.573,12.553,-11.060,-8.530,-5.386,-1.778,-3.328,-18.288,-14.869,-4.719,-4.744,-3.618
2019.07.22 14:02:36.208,87.912,35.411,8.857,18.481,69.785,-15.370,-2.523,15.320,15.337,-16.673,-6.968,-3.605,2.721,-4.091,-14.451,-14.588,-2.457,-3.631,-3.276
2019.07.22 14:02:36.212,87.104,36.678,8.790,22.706,70.827,-14.114,-3.287,17.172,17.191,-22.262,-6.240,-0.663,5.433,-3.986,-11.485,-10.962,-0.265,-2.535,-2.988
2019.07.22 14:02:36.216,85.022,35.191,6.896,24.631,69.638,-14.610,-5.632,18.136,16.863,-24.914,-6.512,2.788,5.137,-2.855,-10.440,-5.863,0.768,-1.832,-2.516
2019.07.22 14:02:36.220,82.250,32.078,4.112,23.834,66.604,-16.399,-8.966,17.802,14.733,-23.101,-7.369,5.380,2.211,-1.479,-11.340,-2.436,0.564,-1.523,-2.047
2019.07.22 14:02:36.224,80.295,29.548,1.988,21.560,63.728,-18.165,-11.949,16.577,12.279,-17.755,-8.172,5.839,-1.780,-0.874,-13.344,-2.703,-0.109,-1.336,-2.028
2019.07.22 14:02:36.228,80.070,29.008,1.641,19.629,62.923,-18.768,-13.461,15.325,10.788,-11.802,-8.561,3.895,-5.219,-1.435,-15.494,-6.267,-0.490,-1.067,-2.733
2019.07.22 14:02:36.232,80.898,29.914,3.089,18.934,64.356,-18.084,-13.361,14.729,10.380,-8.336,-8.700,0.518,-7.448,-2.655,-17.440,-11.079,-0.583,-0.830,-3.976
2019.07.22 14:02:36.236,81.024,30.316,5.364,18.773,66.284,-16.997,-12.474,14.866,10.094,-8.621,-9.114,-2.773,-8.937,-3.658,-19.574,-15.430,-1.135,-0.967,-5.215
2019.07.22 14:02:36.240,79.233,28.608,7.270,17.578,66.514,-16.574,-11.892,15.290,8.868,-11.320,-10.219,-4.979,-10.628,-4.033,-22.522,-19.300,-2.841,-1.669,-5.972
2019.07.22 14:02:36.244,76.070,24.987,8.148,14.410,64.215,-17.155,-12.172,15.506,6.504,-13.514,-11.943,-6.210,-13.044,-4.232,-26.457,-23.867,-5.489,-2.658,-6.193
2019.07.22 14:02:36.248,73.478,21.413,8.128,9.940,60.517,-18.116,-13.038,15.389,3.825,-12.790,-13.722,-7.325,-15.879,-5.175,-30.815,-29.752,-7.865,-3.265,-6.239
2019.07.22 14:02:36.252,73.115,20.124,7.764,6.050,57.430,-18.459,-13.759,15.219,1.955,-8.905,-14.871,-9.001,-18.299,-7.405,-34.611,-35.751,-8.556,-2.885,-6.531
2019.07.22 14:02:36.256,74.838,21.927,7.462,4.370,56.077,-17.689,-13.796,15.344,1.394,-3.823,-15.052,-11.079,-19.596,-10.565,-37.061,-39.395,-7.044,-1.477,-7.167
2019.07.22 14:02:36.260,76.743,25.623,7.214,4.982,55.815,-16.193,-13.195,15.826,1.697,-0.167,-14.461,-12.753,-19.643,-13.622,-38.008,-38.984,-4.162,0.325,-7.861
2019.07.22 14:02:36.264,76.789,28.950,6.788,6.404,54.991,-14.811,-12.432,16.394,1.975,0.709,-13.638,-13.379,-18.808,-15.650,-37.862,-35.292,-1.515,1.620,-8.229
2019.07.22 14:02:36.268,74.594,30.211,6.144,6.881,52.605,-13.997,-11.955,16.758,1.738,-0.409,-13.070,-13.132,-17.539,-16.451,-37.196,-31.322,-0.292,1.858,-8.169
2019.07.22 14:02:36.272,71.817,29.326,5.627,5.898,49.369,-13.335,-11.831,16.950,1.331,-1.387,-12.898,-12.859,-16.019,-16.499,-36.364,-30.083,-0.431,1.208,-7.959
2019.07.22 14:02:36.276,70.782,27.593,5.740,4.630,47.195,-11.864,-11.787,17.347,1.625,-0.489,-12.938,-13.255,-14.196,-16.304,-35.401,-32.174,-0.774,0.372,-7.987
2019.07.22 14:02:36.280,72.518,26.546,6.704,4.931,47.557,-8.959,-11.522,18.305,3.242,2.323,-12.937,-14.139,-12.074,-15.854,-34.182,-35.192,-0.059,0.037,-8.347
2019.07.22 14:02:36.284,75.913,26.866,8.209,7.681,50.177,-5.029,-10.958,19.708,5.980,5.484,-12.809,-14.543,-9.943,-14.706,-32.636,-35.584,2.072,0.399,-8.688
2019.07.22 14:02:36.288,78.647,28.121,9.597,11.900,53.171,-1.431,-10.216,20.859,8.877,7.148,-12.672,-13.613,-8.312,-12.668,-30.837,-31.509,4.839,1.134,-8.476
2019.07.22 14:02:36.292,79.032,29.306,10.343,15.361,54.521,0.366,-9.409,20.870,10.816,6.610,-12.698,-11.533,-7.605,-10.412,-29.006,-24.452,6.982,1.774,-7.468
2019.07.22 14:02:36.296,77.154,29.604,10.419,16.251,53.574,-0.272,-8.520,19.292,11.165,4.694,-12.930,-9.598,-7.909,-9.344,-27.480,-18.293,7.718,2.138,-5.992
2019.07.22 14:02:36.300,74.410,28.752,10.242,14.513,51.308,-2.787,-7.533,16.462,10.024,2.912,-13.262,-9.275,-8.982,-10.649,-26.675,-16.574,7.223,2.431,-4.759
2019.07.22 14:02:36.304,72.018,26.910,10.259,11.813,49.222,-5.907,-6.664,13.294,8.009,2.163,-13.545,-10.977,-10.465,-14.239,-26.937,-20.059,6.325,2.956,-4.338
2019.07.22 14:02:36.308,69.955,24.352,10.548,10.187,47.917,-8.519,-6.404,10.642,5.850,2.090,-13.719,-13.597,-12.078,-18.486,-28.250,-26.369,5.762,3.755,-4.711
2019.07.22 14:02:36.312,67.262,21.306,10.757,10.466,46.641,-10.302,-7.217,8.753,4.089,1.537,-13.827,-15.233,-13.633,-21.101,-29.993,-31.757,5.650,4.499,-5.273
2019.07.22 14:02:36.316,63.314,17.989,10.437,11.722,44.142,-11.692,-9.108,7.223,2.987,-0.367,-13.929,-14.585,-14.936,-20.605,-31.058,-33.532,5.540,4.756,-5.301
2019.07.22 14:02:36.320,58.739,14.653,9.432,12.097,39.979,-13.343,-11.461,5.486,2.498,-3.483,-14.047,-11.892,-15.762,-17.324,-30.457,-31.376,4.907,4.373,-4.503
2019.07.22 14:02:36.324,55.020,11.494,8.001,10.289,35.032,-15.557,-13.354,3.405,2.260,-6.863,-14.209,-8.682,-16.032,-13.181,-28.111,-26.918,3.577,3.621,-3.240
2019.07.22 14:02:36.328,53.113,8.544,6.589,6.501,30.772,-18.082,-14.172,1.460,1.659,-9.618,-14.537,-6.571,-15.995,-10.431,-25.199,-22.297,1.784,2.976,-2.224
2019.07.22 14:02:36.332,52.435,5.750,5.493,2.208,27.982,-20.323,-14.011,0.398,0.104,-11.591,-15.218,-6.101,-16.176,-10.258,-23.605,-18.999,-0.085,2.745,-1.967
2019.07.22 14:02:36.336,51.254,3.243,4.747,-0.928,26.157,-21.706,-13.498,0.626,-2.549,-13.232,-16.295,-6.540,-16.975,-12.186,-24.652,-17.630,-1.715,2.873,-2.412
2019.07.22 14:02:36.340,48.261,1.532,4.307,-2.078,24.146,-21.910,-13.153,1.856,-5.698,-14.848,-17.415,-6.723,-18.184,-14.618,-27.972,-18.285,-2.849,3.102,-3.019
2019.07.22 14:02:36.344,43.917,1.298,4.316,-1.464,21.430,-20.917,-12.834,3.277,-8.152,-16.002,-17.807,-6.142,-18.877,-15.992,-31.442,-20.810,-3.172,3.302,-3.224
2019.07.22 14:02:36.348,40.301,2.807,5.108,0.171,18.819,-18.977,-11.797,4.090,-8.769,-15.743,-16.667,-5.376,-17.926,-15.700,-32.444,-24.631,-2.345,3.652,-2.874
2019.07.22 14:02:36.352,39.491,5.411,6.885,2.216,17.840,-16.582,-9.377,3.959,-7.180,-13.566,-13.767,-5.539,-14.873,-14.245,-29.670,-28.557,-0.313,4.468,-2.311
2019.07.22 14:02:36.356,41.810,7.651,9.350,4.388,19.328,-14.419,-5.765,3.066,-4.079,-10.257,-9.858,-7.301,-10.537,-12.702,-24.212,-31.112,2.393,5.851,-2.078
2019.07.22 14:02:36.360,45.478,8.063,11.665,6.455,22.455,-13.152,-2.171,1.791,-0.826,-7.773,-6.472,-10.326,-6.776,-12.020,-19.037,-31.366,4.723,7.479,-2.503
2019.07.22 14:02:36.364,47.964,6.155,12.900,7.954,25.137,-13.095,-0.149,0.393,1.352,-8.047,-5.121,-13.557,-5.445,-12.596,-17.132,-29.619,5.669,8.788,-3.482
2019.07.22 14:02:36.368,47.891,2.779,12.665,8.331,25.529,-13.972,-0.540,-1.040,1.983,-11.547,-6.369,-15.993,-7.201,-14.250,-19.564,-27.201,4.954,9.393,-4.598
2019.07.22 14:02:36.372,45.889,-0.448,11.418,7.444,23.361,-15.018,-2.855,-2.374,1.364,-16.720,-9.433,-17.265,-11.031,-16.404,-24.834,-25.432,3.292,9.384,-5.421
2019.07.22 14:02:36.376,43.757,-2.272,10.153,5.900,20.018,-15.449,-5.617,-3.248,0.081,-20.828,-12.638,-17.571,-14.860,-18.299,-29.955,-24.573,1.931,9.223,-5.736
2019.07.22 14:02:36.380,42.781,-2.594,9.665,4.815,17.323,-14.996,-7.436,-3.219,-1.464,-21.646,-14.472,-17.179,-16.879,-19.221,-32.452,-23.724,1.781,9.308,-5.561
2019.07.22 14:02:36.384,42.735,-2.330,9.960,5.060,16.111,-14.087,-7.999,-2.145,-3.099,-18.818,-14.509,-16.089,-16.652,-18.790,-31.840,-21.804,2.787,9.601,-5.019
2019.07.22 14:02:36.388,42.370,-2.517,10.266,6.598,15.778,-13.498,-8.209,-0.474,-4.568,-13.931,-13.566,-14.202,-15.240,-17.235,-29.603,-18.748,4.060,9.655,-4.232
2019.07.22 14:02:36.392,40.791,-3.485,9.643,8.490,15.086,-13.742,-9.392,0.922,-5.327,-9.362,-12.991,-11.766,-14.309,-15.419,-27.835,-15.807,4.625,9.045,-3.317
2019.07.22 14:02:36.396,38.330,-4.809,7.682,9.587,13.377,-14.700,-12.203,1.326,-4.857,-6.806,-13.618,-9.556,-14.896,-14.438,-27.663,-14.602,4.158,7.801,-2.440
2019.07.22 14:02:36.400,36.096,-6.019,4.770,9.359,11.079,-15.811,-16.098,0.719,-3.354,-6.535,-15.159,-8.459,-16.755,-14.949,-28.604,-15.753,3.103,6.469,-1.809
2019.07.22 14:02:36.404,34.690,-7.311,1.735,8.148,9.089,-16.657,-19.739,-0.191,-2.125,-7.765,-16.471,-8.778,-18.682,-16.692,-29.215,-18.320,2.124,5.685,-1.557
2019.07.22 14:02:36.408,33.431,-9.497,-0.750,6.695,7.738,-17.422,-21.978,-0.545,-3.122,-9.597,-16.461,-9.915,-19.532,-18.647,-28.388,-20.597,1.428,5.646,-1.631
2019.07.22 14:02:36.412,30.954,-13.138,-2.512,5.381,6.390,-18.757,-22.599,-0.090,-7.655,-11.664,-14.941,-10.809,-19.093,-19.799,-26.227,-21.584,0.621,5.913,-1.814
2019.07.22 14:02:36.416,26.690,-17.641,-3.726,3.909,4.106,-21.123,-22.274,0.528,-15.158,-14.022,-12.779,-10.852,-18.200,-19.974,-23.908,-21.791,-0.781,5.772,-1.909
2019.07.22 14:02:36.420,21.786,-21.242,-4.500,1.723,0.738,-24.169,-21.858,0.230,-23.036,-16.579,-11.281,-10.464,-18.049,-20.052,-22.726,-22.623,-2.658,4.841,-1.938
2019.07.22 14:02:36.424,18.456,-22.099,-4.652,-1.208,-2.648,-26.729,-21.668,-1.592,-27.937,-18.747,-11.253,-10.781,-19.283,-21.286,-23.156,-24.905,-4.095,3.443,-2.157
2019.07.22 14:02:36.428,18.173,-19.680,-3.919,-4.006,-4.520,-27.552,-21.345,-4.483,-27.750,-19.751,-12.481,-12.621,-21.534,-24.221,-24.604,-27.914,-3.975,2.394,-2.835
2019.07.22 14:02:36.432,20.302,-15.309,-2.375,-5.315,-4.193,-26.231,-20.363,-7.144,-22.957,-19.323,-13.948,-15.619,-23.729,-28.055,-25.952,-29.885,-1.882,2.392,-3.959
2019.07.22 14:02:36.436,22.495,-11.294,-0.608,-4.275,-2.494,-23.572,-18.675,-8.368,-16.372,-18.084,-14.611,-18.309,-24.879,-31.035,-26.395,-29.584,1.432,3.480,-5.129
2019.07.22 14:02:36.440,22.658,-9.278,0.586,-1.242,-1.106,-21.043,-16.901,-7.968,-11.390,-17.145,-14.123,-19.181,-24.752,-31.660,-25.937,-27.540,4.472,5.017,-5.768
2019.07.22 14:02:36.444,20.833,-9.094,0.778,2.353,-1.091,-19.704,-15.891,-6.951,-9.952,-17.180,-12.991,-17.865,-23.964,-29.823,-25.264,-25.773,6.002,6.144,-5.521
2019.07.22 14:02:36.448,19.279,-9.081,0.227,4.923,-1.916,-19.436,-16.053,-6.785,-11.598,-17.782,-12.111,-15.451,-23.485,-26.998,-25.187,-26.150,5.824,6.356,-4.519
2019.07.22 14:02:36.452,20.542,-7.601,-0.370,5.716,-1.910,-19.127,-17.039,-8.335,-14.154,-17.768,-12.079,-13.646,-23.959,-25.309,-26.100,-28.812,4.731,5.737,-3.291
2019.07.22 14:02:36.456,25.084,-4.516,-0.511,5.093,0.156,-17.683,-18.059,-11.285,-15.438,-16.313,-12.795,-13.439,-25.323,-26.133,-27.790,-32.052,3.721,4.734,-2.366
2019.07.22 14:02:36.460,30.526,-1.404,-0.336,3.962,3.742,-15.073,-18.542,-14.483,-14.710,-13.994,-13.624,-14.382,-26.939,-29.261,-29.631,-33.771,3.192,3.734,-1.894
2019.07.22 14:02:36.464,33.273,-0.327,-0.449,2.905,6.678,-12.544,-18.593,-16.878,-12.903,-12.764,-13.931,-15.057,-28.092,-33.152,-30.975,-33.234,2.795,2.844,-1.569
2019.07.22 14:02:36.468,31.283,-2.164,-1.242,1.780,6.788,-11.782,-18.856,-18.263,-11.679,-14.635,-13.561,-14.321,-28.458,-36.025,-31.483,-31.563,2.017,1.998,-0.940
2019.07.22 14:02:36.472,25.725,-5.853,-2.339,0.095,3.692,-13.621,-19.937,-19.221,-12.142,-19.960,-12.908,-12.248,-28.241,-36.938,-31.240,-30.546,0.897,1.226,0.180
2019.07.22 14:02:36.476,20.172,-9.128,-2.738,-2.217,-0.738,-17.269,-21.884,-20.379,-14.174,-26.660,-12.570,-9.996,-27.926,-36.144,-30.655,-30.875,0.149,0.735,1.538
2019.07.22 14:02:36.480,17.961,-10.135,-1.652,-4.403,-3.706,-20.671,-24.144,-21.670,-16.739,-31.195,-12.868,-8.744,-27.881,-34.616,-30.181,-31.448,0.536,0.710,2.649
2019.07.22 14:02:36.484,19.841,-8.630,0.633,-5.273,-3.579,-21.770,-25.991,-22.270,-18.735,-30.786,-13.604,-8.675,-28.101,-33.259,-30.025,-30.393,2.020,1.013,3.213
2019.07.22 14:02:36.488,23.709,-5.887,2.652,-4.114,-1.050,-19.774,-27.030,-21.313,-19.692,-25.394,-14.204,-8.889,-28.262,-32.448,-29.997,-26.885,3.495,1.136,3.375
2019.07.22 14:02:36.492,26.476,-3.545,2.657,-1.378,1.509,-15.594,-27.354,-18.791,-19.856,-17.980,-14.132,-8.305,-28.028,-32.112,-29.635,-22.092,3.432,0.524,3.591
2019.07.22 14:02:36.496,26.430,-2.422,-0.100,1.466,1.954,-11.185,-27.281,-15.838,-19.778,-12.757,-13.251,-6.741,-27.352,-32.105,-28.578,-18.343,0.995,-0.958,4.228
2019.07.22 14:02:36.500,24.204,-2.216,-4.675,2.838,-0.029,-8.341,-26.974,-14.127,-19.832,-12.558,-11.898,-5.194,-26.559,-32.434,-26.958,-17.254,-3.252,-2.817,5.212
2019.07.22 14:02:36.504,21.807,-2.176,-8.903,2.053,-2.864,-7.762,-26.342,-14.790,-20.018,-17.112,-10.659,-5.047,-26.130,-33.129,-25.483,-18.495,-7.626,-4.211,6.062
2019.07.22 14:02:36.508,20.799,-1.969,-10.755,-0.322,-4.472,-8.942,-25.281,-17.679,-20.071,-23.384,-10.000,-6.901,-26.349,-33.990,-25.064,-20.297,-10.385,-4.538,6.267
2019.07.22 14:02:36.512,21.234,-1.930,-9.583,-2.977,-3.920,-10.788,-24.017,-21.504,-19.663,-27.693,-10.020,-10.023,-27.070,-34.525,-26.181,-21.198,-10.790,-3.863,5.705
2019.07.22 14:02:36.516,22.096,-2.543,-6.386,-4.777,-1.990,-12.410,-23.151,-24.704,-18.543,-28.083,-10.452,-12.906,-27.779,-34.238,-28.419,-21.354,-9.389,-2.843,4.758
2019.07.22 14:02:36.520,22.535,-3.744,-2.985,-5.414,-0.370,-13.541,-23.292,-26.368,-16.626,-25.330,-10.867,-14.432,-27.929,-33.045,-30.601,-22.164,-7.429,-2.208,4.016
2019.07.22 14:02:36.524,22.599,-4.801,-0.804,-5.345,-0.279,-14.414,-24.565,-26.562,-14.120,-22.030,-10.920,-14.657,-27.297,-31.433,-31.474,-24.563,-5.947,-2.223,3.837
2019.07.22 14:02:36.528,22.809,-4.919,-0.172,-5.226,-1.682,-15.339,-26.412,-25.965,-11.659,-20.591,-10.485,-14.555,-26.108,-30.182,-30.514,-27.642,-5.248,-2.561,4.112
2019.07.22 14:02:36.532,23.178,-4.015,-0.542,-5.343,-3.616,-16.373,-27.918,-25.251,-10.255,-21.645,-9.626,-15.002,-24.835,-29.817,-28.233,-29.066,-5.066,-2.681,4.436
2019.07.22 14:02:36.536,22.832,-2.885,-1.258,-5.500,-5.144,-17.294,-28.423,-24.737,-10.886,-23.936,-8.486,-15.924,-23.834,-30.188,-25.753,-27.077,-5.080,-2.346,4.506
2019.07.22 14:02:36.540,20.770,-2.559,-2.121,-5.329,-6.025,-17.809,-27.969,-24.492,-13.857,-25.561,-7.203,-16.380,-23.110,-30.507,-23.978,-22.335,-5.254,-1.855,4.403
2019.07.22 14:02:36.544,17.083,-3.382,-3.332,-4.685,-6.590,-17.760,-27.215,-24.603,-18.355,-25.448,-5.921,-15.499,-22.406,-29.825,-23.002,-17.793,-5.717,-1.775,4.491
2019.07.22 14:02:36.548,13.389,-4.664,-4.990,-3.771,-7.137,-17.183,-26.917,-25.214,-22.632,-23.964,-4.842,-13.421,-21.537,-27.638,-22.221,-16.502,-6.416,-2.418,5.041
2019.07.22 14:02:36.552,11.836,-5.262,-6.740,-2.937,-7.534,-16.215,-27.377,-26.245,-24.885,-22.320,-4.241,-11.376,-20.674,-24.243,-21.032,-19.109,-6.981,-3.518,5.909
2019.07.22 14:02:36.556,13.388,-4.607,-7.945,-2.417,-7.447,-14.983,-28.304,-27.113,-24.341,-21.431,-4.363,-10.769,-20.307,-20.637,-19.485,-23.236,-6.997,-4.389,6.575
2019.07.22 14:02:36.560,16.861,-3.255,-8.229,-2.234,-6.895,-13.562,-29.147,-26.871,-21.820,-21.215,-5.254,-12.023,-20.876,-18.042,-18.340,-25.377,-6.445,-4.431,6.544
2019.07.22 14:02:36.564,19.653,-2.436,-7.834,-2.327,-6.498,-12.005,-29.589,-24.815,-19.299,-20.793,-6.669,-14.152,-22.365,-17.300,-18.436,-23.802,-5.829,-3.591,5.777
2019.07.22 14:02:36.568,19.693,-2.924,-7.434,-2.668,-7.069,-10.376,-29.786,-21.113,-18.665,-19.276,-8.152,-15.455,-24.204,-18.442,-19.938,-19.982,-5.810,-2.402,4.778
2019.07.22 14:02:36.572,17.025,-4.218,-7.539,-3.209,-8.876,-8.739,-30.166,-16.908,-20.471,-16.383,-9.284,-14.789,-25.608,-20.634,-22.078,-17.303,-6.591,-1.592,4.249
2019.07.22 14:02:36.576,13.714,-4.792,-8.051,-3.687,-11.278,-7.134,-30.981,-13.680,-23.520,-12.420,-9.938,-12.393,-26.109,-22.546,-23.659,-18.141,-7.631,-1.584,4.553
2019.07.22 14:02:36.580,12.120,-3.288,-8.420,-3.563,-13.132,-5.591,-32.012,-12.284,-25.619,-7.839,-10.325,-9.645,-25.843,-23.003,-23.885,-21.785,-7.987,-2.252,5.442
2019.07.22 14:02:36.584,12.985,0.279,-8.260,-2.266,-13.685,-4.188,-32.659,-12.404,-25.023,-2.969,-10.773,-7.960,-25.337,-21.596,-22.846,-24.960,-7.091,-3.089,6.263
2019.07.22 14:02:36.588,14.869,4.321,-7.859,0.347,-13.202,-3.089,-32.335,-12.857,-21.622,1.755,-11.370,-7.753,-24.967,-18.897,-21.260,-24.475,-5.322,-3.597,6.493
2019.07.22 14:02:36.592,15.358,6.699,-8.056,3.686,-12.763,-2.482,-30.852,-12.532,-17.070,5.360,-11.740,-8.261,-24.531,-16.110,-19.726,-19.724,-3.881,-3.588,6.183
2019.07.22 14:02:36.596,13.000,6.240,-9.533,6.618,-13.407,-2.438,-28.521,-11.211,-13.724,6.372,-11.183,-8.290,-23.333,-14.325,-18.156,-12.980,-3.996,-3.216,5.951
2019.07.22 14:02:36.600,8.383,3.593,-12.116,8.106,-15.303,-2.761,-25.919,-9.640,-13.073,3.651,-9.123,-7.238,-20.757,-13.850,-15.890,-7.401,-6.050,-2.780,6.514
2019.07.22 14:02:36.604,3.595,0.796,-14.747,7.870,-17.625,-2.976,-23.568,-8.830,-14.661,-2.435,-5.570,-5.557,-16.865,-14.097,-12.384,-4.629,-9.284,-2.513,8.122
2019.07.22 14:02:36.608,0.656,-0.102,-16.205,6.577,-19.150,-2.505,-21.726,-9.195,-16.238,-9.532,-1.260,-4.343,-12.514,-14.123,-7.854,-4.037,-12.282,-2.500,10.330
2019.07.22 14:02:36.612,0.277,1.667,-15.994,5.380,-19.045,-0.950,-20.411,-10.242,-15.104,-14.208,2.683,-4.451,-8.848,-13.424,-3.310,-4.059,-13.861,-2.727,12.263
2019.07.22 14:02:36.616,1.826,5.264,-14.625,5.148,-17.211,1.680,-19.517,-11.049,-9.855,-13.908,5.336,-5.869,-6.527,-12.340,0.099,-4.083,-13.693,-3.128,13.169
2019.07.22 14:02:36.620,4.284,8.987,-13.017,5.950,-14.040,4.943,-18.877,-11.067,-1.455,-8.657,6.441,-7.806,-5.318,-11.717,1.854,-4.952,-12.257,-3.580,12.833
2019.07.22 14:02:36.624,7.151,11.437,-11.528,7.175,-9.975,8.153,-18.242,-10.542,7.078,-1.176,6.405,-9.333,-4.376,-12.068,2.342,-7.598,-10.258,-3.863,11.587
2019.07.22 14:02:36.628,10.512,12.226,-9.495,8.121,-5.347,10.684,-17.277,-10.215,12.240,4.820,5.884,-10.016,-2.987,-12.954,2.420,-11.266,-8.067,-3.711,9.955
2019.07.22 14:02:36.632,14.356,11.871,-5.791,8.551,-0.603,12.215,-15.679,-10.588,11.981,7.014,5.265,-10.066,-1.162,-13.156,2.670,-13.329,-5.623,-2.965,8.282
2019.07.22 14:02:36.636,17.997,11.132,-0.036,8.748,3.455,12.788,-13.430,-11.434,6.843,5.818,4.456,-9.957,0.389,-11.613,2.996,-11.233,-2.822,-1.747,6.628
2019.07.22 14:02:36.640,20.257,10.425,6.542,9.079,5.847,12.680,-10.979,-11.995,-0.382,3.678,3.094,-9.911,0.877,-8.381,2.855,-5.017,0.004,-0.475,4.975
2019.07.22 14:02:36.644,20.302,9.709,11.407,9.496,6.000,12.188,-9.177,-11.674,-6.264,2.918,0.971,-9.681,0.097,-4.813,1.872,2.017,2.002,0.331,3.488
2019.07.22 14:02:36.648,18.336,8.778,12.143,9.481,4.269,11.447,-8.894,-10.581,-8.611,3.867,-1.695,-8.773,-1.434,-2.690,0.241,5.438,2.239,0.363,2.561
