Time,Fp1-CPz,Fp2-CPz,F3-CPz,F4-CPz,F7-CPz,F8-CPz,C3-CPz,C4-CPz,T7-CPz,T8-CPz,P3-CPz,P4-CPz,P7-CPz,P8-CPz,O1-CPz,O2-CPz,Fz-CPz,Cz-CPz,Pz-CPz
2019.07.22 14:07:33.776,53.216,19.455,51.024,52.346,21.006,40.234,-37.742,-21.120,-31.062,-3.118,-17.551,2.408,19.297,-77.519,30.233,-7.887,38.426,41.626,37.637
2019.07.22 14:07:33.780,42.135,10.986,36.146,37.457,16.317,26.989,-16.490,-16.894,-26.956,-6.829,-11.753,-0.750,15.653,-63.354,24.335,-6.747,23.673,30.696,25.053
2019.07.22 14:07:33.784,16.227,-4.770,10.374,10.071,0.602,-0.090,8.255,-8.083,-16.899,-12.884,-1.741,-6.245,6.346,-33.306,8.613,-7.134,0.702,10.861,3.385
2019.07.22 14:07:33.788,-8.807,-18.222,-11.989,-14.287,-16.448,-25.936,23.378,-0.421,-7.041,-18.767,7.338,-9.986,-2.029,-4.787,-5.925,-6.991,-18.251,-6.003,-14.437
2019.07.22 14:07:33.792,-20.255,-22.368,-20.212,-23.255,-25.465,-37.672,22.627,1.999,-2.952,-22.176,10.859,-9.531,-4.999,7.393,-11.183,-5.075,-24.491,-11.137,-19.469
2019.07.22 14:07:33.796,-16.600,-17.257,-14.073,-15.617,-23.773,-32.791,10.165,-0.449,-6.027,-22.266,7.696,-5.388,-2.924,0.984,-7.100,-1.678,-18.418,-4.445,-12.271
2019.07.22 14:07:33.800,-6.876,-9.106,-2.910,-0.967,-16.471,-19.483,-3.403,-3.690,-13.047,-19.918,0.728,-0.109,0.183,-13.454,-0.258,1.773,-8.327,6.459,-1.211
2019.07.22 14:07:33.804,-2.362,-5.048,2.062,8.237,-11.724,-9.442,-9.083,-3.457,-18.957,-16.911,-5.376,3.905,0.424,-21.593,2.288,3.834,-3.686,12.532,4.623
2019.07.22 14:07:33.808,-7.632,-7.775,-3.919,5.855,-14.226,-9.072,-5.366,1.357,-20.521,-14.656,-7.351,6.080,-2.815,-16.227,-1.309,4.012,-8.206,9.838,2.123
2019.07.22 14:07:33.812,-17.908,-14.112,-16.392,-4.372,-21.959,-15.762,2.167,8.117,-18.125,-13.420,-5.179,7.613,-6.734,-1.673,-6.934,2.964,-17.833,1.536,-4.514
2019.07.22 14:07:33.816,-24.122,-18.264,-26.002,-12.952,-28.485,-21.454,6.443,12.827,-14.657,-12.545,-1.420,9.964,-7.806,11.038,-8.711,1.940,-24.684,-5.618,-8.248
2019.07.22 14:07:33.820,-20.861,-16.733,-25.999,-12.563,-28.478,-19.934,4.764,13.332,-12.756,-11.330,1.187,13.317,-4.806,13.550,-4.203,1.988,-23.369,-6.937,-5.308
2019.07.22 14:07:33.824,-10.488,-10.893,-16.934,-3.310,-21.841,-11.699,0.317,10.719,-12.773,-9.786,1.844,16.286,0.345,6.376,3.802,3.425,-14.672,-3.010,2.057
2019.07.22 14:07:33.828,-0.447,-5.384,-5.351,8.374,-13.264,-2.810,-1.297,7.990,-12.934,-8.593,1.978,17.043,4.430,-2.633,10.077,5.768,-4.122,1.679,8.042
2019.07.22 14:07:33.832,3.336,-4.062,1.810,15.542,-7.997,0.701,2.876,7.379,-11.223,-8.367,3.687,14.827,5.700,-5.475,11.547,7.989,2.775,2.991,8.419
2019.07.22 14:07:33.836,1.040,-7.048,2.257,16.091,-7.655,-2.136,10.860,8.667,-7.204,-8.894,7.805,10.592,5.138,-0.443,9.594,8.953,4.476,0.431,3.869
2019.07.22 14:07:33.840,-2.224,-11.249,-0.942,13.450,-9.498,-6.889,17.816,9.777,-2.278,-9.051,13.131,6.334,5.265,7.347,8.277,7.955,3.565,-3.063,-1.060
2019.07.22 14:07:33.844,-1.863,-13.589,-2.860,12.668,-9.467,-7.946,20.281,8.898,1.632,-7.552,17.350,3.731,7.679,11.157,10.302,5.236,3.588,-4.184,-2.093
2019.07.22 14:07:33.848,1.539,-13.993,-1.004,15.723,-6.068,-3.430,18.772,6.163,3.652,-3.935,18.724,3.191,11.528,8.617,14.432,2.203,5.717,-2.228,1.252
2019.07.22 14:07:33.852,2.501,-15.560,3.163,20.081,-1.698,3.358,16.704,3.437,4.411,0.968,17.189,3.928,14.195,3.351,16.598,0.960,8.087,0.587,5.644
2019.07.22 14:07:33.856,-4.512,-21.959,6.223,21.376,-0.443,6.919,16.905,2.538,5.124,5.481,14.094,4.808,13.528,1.223,13.639,3.157,8.033,1.434,7.122
2019.07.22 14:07:33.860,-20.070,-34.446,6.027,17.466,-4.473,4.160,18.970,3.562,6.276,8.092,11.005,5.152,9.649,4.857,6.367,8.727,4.857,-0.465,4.505
2019.07.22 14:07:33.864,-39.018,-51.081,3.180,10.217,-12.247,-3.303,19.739,4.792,7.128,8.312,8.660,4.923,4.871,11.348,-0.709,15.486,0.501,-3.254,0.155
2019.07.22 14:07:33.868,-54.632,-68.648,-0.252,3.636,-19.989,-10.844,16.308,4.208,6.450,6.790,6.862,4.350,1.882,15.003,-2.736,20.175,-2.379,-4.308,-2.312
2019.07.22 14:07:33.872,-64.077,-85.371,-3.171,0.309,-24.948,-14.768,8.789,1.228,3.753,4.731,5.165,3.548,1.792,12.479,1.823,20.505,-3.026,-2.728,-1.137
2019.07.22 14:07:33.876,-70.481,-101.936,-6.512,-0.591,-27.497,-15.018,0.431,-2.833,-0.103,3.121,3.583,2.497,3.602,5.734,10.150,16.830,-3.384,-0.147,2.360
2019.07.22 14:07:33.880,-79.902,-119.954,-11.957,-2.047,-30.293,-14.547,-4.908,-5.891,-3.435,2.333,2.625,1.322,5.350,0.294,17.288,12.088,-6.295,0.804,5.270
2019.07.22 14:07:33.884,-95.819,-139.390,-19.656,-6.051,-35.423,-16.237,-5.676,-6.741,-4.903,2.262,2.706,0.428,5.789,0.488,19.661,9.832,-12.730,-1.063,5.741
2019.07.22 14:07:33.888,-115.795,-157.438,-27.296,-11.524,-42.225,-20.264,-3.497,-5.788,-4.326,2.718,3.584,0.239,5.190,5.858,17.131,11.643,-20.554,-4.389,4.347
2019.07.22 14:07:33.892,-133.046,-170.052,-31.580,-15.196,-47.755,-24.130,-1.464,-4.345,-2.528,3.669,4.414,0.759,4.759,11.748,12.330,15.882,-26.001,-6.448,3.150
2019.07.22 14:07:33.896,-141.528,-174.940,-30.880,-14.570,-49.418,-25.082,-1.515,-3.281,-0.487,5.158,4.415,1.415,5.419,13.424,8.263,18.837,-26.622,-5.540,3.537
2019.07.22 14:07:33.900,-140.377,-173.490,-26.680,-10.263,-47.330,-22.610,-3.166,-2.312,1.425,7.088,3.537,1.463,7.124,10.080,6.350,17.543,-23.193,-2.455,4.923
2019.07.22 14:07:33.904,-134.231,-169.900,-22.432,-5.601,-44.246,-18.780,-4.437,-0.544,3.494,9.149,2.518,0.665,9.200,5.385,6.269,12.182,-18.987,0.241,5.464
2019.07.22 14:07:33.908,-129.478,-168.151,-20.781,-3.835,-43.116,-16.269,-3.880,2.346,6.113,11.023,2.252,-0.366,11.214,4.313,7.198,6.205,-17.061,0.413,3.960
2019.07.22 14:07:33.912,-129.611,-169.225,-21.550,-5.435,-44.466,-15.965,-1.769,5.496,9.257,12.673,3.043,-0.509,13.416,9.098,8.975,4.024,-17.894,-1.882,1.111
2019.07.22 14:07:33.916,-133.288,-170.777,-22.218,-7.787,-45.963,-16.276,0.474,7.452,12.463,14.433,4.409,1.046,16.339,17.717,12.096,7.969,-19.284,-4.569,-1.046
2019.07.22 14:07:33.920,-136.202,-169.401,-20.430,-7.501,-44.532,-14.656,1.858,7.469,15.288,16.792,5.619,4.182,20.038,25.911,16.797,16.779,-18.476,-5.418,-0.930
2019.07.22 14:07:33.924,-134.812,-163.565,-16.260,-3.284,-39.162,-9.912,2.789,6.295,17.723,20.014,6.442,7.946,23.799,30.745,22.351,26.643,-14.590,-3.920,1.247
2019.07.22 14:07:33.928,-128.849,-154.849,-12.232,3.053,-31.898,-3.259,4.502,5.659,20.120,23.896,7.426,11.261,26.667,32.579,27.383,33.873,-9.340,-1.578,3.804
2019.07.22 14:07:33.932,-120.954,-146.672,-11.079,8.160,-26.202,2.657,7.615,6.831,22.719,27.836,9.380,13.636,28.299,33.983,30.899,37.114,-5.541,-0.481,5.196
2019.07.22 14:07:33.936,-114.322,-141.735,-13.251,9.815,-24.160,5.785,11.240,9.494,25.225,31.128,12.499,15.279,29.262,36.866,32.964,37.539,-4.835,-1.494,5.344
2019.07.22 14:07:33.940,-110.564,-140.328,-16.403,8.373,-25.024,5.952,13.581,11.938,26.883,33.266,15.892,16.575,30.404,40.534,34.364,37.185,-6.567,-3.633,5.451
2019.07.22 14:07:33.944,-109.342,-140.693,-17.358,5.933,-26.292,4.460,13.440,12.429,26.990,34.081,18.002,17.499,31.865,42.363,35.587,37.028,-8.653,-5.075,6.573
2019.07.22 14:07:33.948,-109.479,-140.827,-14.857,4.190,-26.255,2.626,11.244,10.616,25.403,33.704,17.644,17.551,32.670,40.320,36.168,36.400,-9.505,-4.819,8.370
2019.07.22 14:07:33.952,-110.126,-140.008,-10.739,3.005,-25.629,0.715,8.597,7.782,22.595,32.472,14.894,16.318,31.419,34.973,35.085,34.022,-9.300,-3.514,9.310
2019.07.22 14:07:33.956,-110.915,-138.795,-8.529,0.904,-26.755,-1.821,6.775,5.742,19.249,30.842,11.098,14.112,27.532,29.169,31.852,29.540,-9.584,-2.809,8.180
2019.07.22 14:07:33.960,-111.344,-137.803,-10.608,-3.115,-31.133,-5.245,5.559,5.355,15.777,29.283,7.999,12.033,21.979,25.746,27.228,24.118,-11.716,-3.901,5.474
2019.07.22 14:07:33.964,-110.472,-136.597,-16.343,-8.241,-37.583,-8.802,3.492,5.928,12.203,28.107,6.616,11.305,16.782,25.318,22.810,19.628,-15.618,-6.561,3.258
2019.07.22 14:07:33.968,-107.514,-133.858,-22.648,-12.242,-42.821,-11.142,-0.654,5.972,8.449,27.294,6.723,12.405,13.653,26.084,19.849,17.283,-19.854,-9.431,3.522
2019.07.22 14:07:33.972,-102.838,-128.638,-26.445,-13.240,-44.062,-11.503,-6.529,4.627,4.712,26.494,7.248,14.735,12.907,25.714,18.404,16.998,-22.836,-11.185,6.424
2019.07.22 14:07:33.976,-98.167,-121.460,-26.900,-11.212,-41.378,-10.453,-12.193,2.496,1.543,25.304,7.223,17.142,13.552,23.579,17.652,17.978,-23.971,-11.479,10.025
2019.07.22 14:07:33.980,-95.475,-114.147,-25.702,-7.881,-37.686,-9.416,-15.492,1.173,-0.459,23.676,6.506,18.817,14.415,21.342,17.049,19.814,-23.777,-10.914,11.826
2019.07.22 14:07:33.984,-95.329,-108.419,-25.328,-5.100,-36.286,-9.376,-15.639,1.892,-1.048,22.130,5.750,19.792,15.241,21.418,17.159,22.875,-23.023,-10.212,10.810
2019.07.22 14:07:33.988,-96.146,-104.498,-26.938,-3.238,-38.026,-9.969,-13.694,4.460,-0.494,21.498,5.702,20.592,16.728,24.693,19.209,27.536,-21.852,-9.482,8.219
2019.07.22 14:07:33.992,-95.214,-100.981,-29.688,-1.012,-40.581,-9.859,-11.619,7.375,0.584,22.289,6.450,21.433,19.460,29.474,23.642,32.989,-19.776,-8.275,6.407
2019.07.22 14:07:33.996,-90.787,-96.128,-31.871,3.069,-40.518,-8.085,-10.810,8.999,1.500,24.128,7.251,21.763,22.766,32.585,29.006,36.984,-16.518,-6.291,6.790
2019.07.22 14:07:34.000,-83.560,-89.463,-32.687,8.971,-36.411,-5.155,-11.321,8.808,1.654,25.793,7.057,20.687,24.670,31.686,32.422,37.104,-12.801,-3.984,8.692
2019.07.22 14:07:34.004,-76.254,-82.277,-32.971,14.697,-30.306,-2.812,-12.274,7.679,0.534,25.941,5.341,17.930,23.184,26.936,31.528,32.725,-10.197,-2.397,10.074
2019.07.22 14:07:34.008,-71.573,-76.563,-34.261,17.613,-26.226,-2.615,-12.839,7.065,-2.213,24.073,2.558,14.436,17.931,20.746,26.386,25.984,-10.033,-2.347,9.448
2019.07.22 14:07:34.012,-70.172,-73.297,-37.112,16.474,-26.903,-4.550,-12.799,7.784,-6.505,20.985,-0.117,11.897,10.720,15.938,19.665,20.665,-12.248,-3.691,7.238
2019.07.22 14:07:34.016,-70.237,-71.535,-40.247,12.485,-31.468,-6.923,-12.267,9.450,-11.525,18.310,-1.575,11.467,4.442,13.817,14.715,19.592,-15.217,-5.372,5.379
2019.07.22 14:07:34.020,-68.969,-69.102,-41.358,8.528,-36.027,-7.686,-11.072,10.929,-15.772,17.391,-1.522,12.690,1.100,13.599,12.956,22.478,-16.789,-6.220,5.535
2019.07.22 14:07:34.024,-64.677,-64.281,-38.903,7.194,-36.646,-6.064,-8.644,11.358,-17.695,18.339,-0.646,13.662,0.523,13.395,12.712,25.974,-15.735,-5.831,7.551
2019.07.22 14:07:34.028,-57.824,-57.078,-33.349,9.166,-32.297,-3.109,-4.662,10.825,-16.595,19.992,-0.084,12.460,0.796,11.831,10.592,26.039,-12.475,-4.764,9.544
2019.07.22 14:07:34.032,-50.300,-49.034,-26.795,13.115,-25.373,-0.701,0.187,10.191,-13.132,20.837,-0.576,8.793,0.048,9.009,4.451,20.916,-8.577,-3.960,9.546
2019.07.22 14:07:34.036,-43.739,-41.814,-21.310,16.982,-19.476,0.107,4.256,10.278,-8.954,20.209,-1.893,4.521,-1.901,6.269,-4.390,12.476,-5.499,-3.925,7.256
2019.07.22 14:07:34.040,-38.352,-35.837,-17.389,19.483,-16.413,-0.026,6.001,11.176,-5.589,18.814,-2.938,2.514,-3.361,5.154,-11.545,4.956,-3.650,-4.408,4.342
2019.07.22 14:07:34.044,-33.165,-30.105,-13.830,20.660,-14.919,0.637,5.272,12.233,-3.438,18.187,-2.446,4.635,-2.217,6.442,-12.448,2.096,-2.442,-4.794,3.047
2019.07.22 14:07:34.048,-27.269,-23.331,-9.100,21.258,-12.083,3.329,3.609,12.662,-1.672,19.478,0.179,10.365,2.244,9.840,-5.620,4.814,-1.170,-4.775,4.332
2019.07.22 14:07:34.052,-20.856,-15.309,-3.008,21.683,-6.162,7.616,3.116,12.190,0.842,22.529,4.454,17.116,8.604,14.307,6.099,11.032,0.143,-4.644,7.161
2019.07.22 14:07:34.056,-15.129,-7.297,2.722,21.549,1.609,11.643,4.716,11.194,4.313,25.918,9.054,21.981,14.236,18.582,17.298,17.481,0.665,-4.973,9.508
2019.07.22 14:07:34.060,-11.246,-1.027,5.499,20.141,7.716,13.554,7.243,10.261,7.560,27.917,12.544,23.553,17.093,21.585,23.386,21.876,-0.537,-6.009,10.128
2019.07.22 14:07:34.064,-9.298,2.810,3.727,17.291,8.963,12.886,8.219,9.621,8.731,27.601,14.076,22.476,16.885,22.607,23.172,23.796,-3.624,-7.378,9.504
2019.07.22 14:07:34.068,-8.211,5.322,-1.943,13.813,4.843,10.814,5.776,8.969,6.699,25.273,13.634,20.446,14.803,21.420,18.891,23.888,-7.686,-8.369,9.174
2019.07.22 14:07:34.072,-6.587,8.712,-8.900,11.096,-2.131,9.139,0.156,7.798,1.987,21.986,11.745,18.624,12.181,18.309,13.946,22.497,-11.225,-8.514,10.093
2019.07.22 14:07:34.076,-3.730,14.636,-14.152,10.186,-8.250,8.903,-6.418,5.925,-3.539,18.654,8.956,16.791,9.333,13.972,10.297,19.119,-13.019,-7.904,11.576
2019.07.22 14:07:34.080,-0.011,22.877,-16.047,11.086,-11.041,9.754,-11.397,3.726,-7.971,15.486,5.530,13.895,5.572,9.240,7.504,13.208,-12.759,-7.005,11.788
2019.07.22 14:07:34.084,3.596,31.364,-14.991,12.775,-10.472,10.429,-13.670,1.894,-10.597,12.171,1.596,9.392,0.293,4.757,3.938,5.477,-11.073,-6.182,9.390
2019.07.22 14:07:34.088,6.281,37.523,-12.807,13.880,-8.271,9.839,-14.038,0.930,-12.081,8.512,-2.447,4.144,-5.924,0.868,-1.068,-1.694,-9.056,-5.434,4.871
2019.07.22 14:07:34.092,7.836,39.933,-11.331,13.479,-6.208,7.806,-14.087,0.827,-13.510,4.894,-5.709,0.081,-11.239,-2.214,-6.083,-5.371,-7.664,-4.577,0.383
2019.07.22 14:07:34.096,8.559,39.152,-11.242,11.540,-4.850,5.013,-14.595,1.168,-15.182,2.149,-7.105,-1.131,-13.676,-4.157,-8.451,-4.023,-7.302,-3.640,-1.822
2019.07.22 14:07:34.100,8.975,37.212,-11.808,8.842,-3.584,2.402,-14.875,1.546,-16.219,0.961,-6.058,0.710,-12.546,-4.505,-6.508,1.218,-7.716,-3.008,-1.063
2019.07.22 14:07:34.104,9.756,36.293,-11.549,6.543,-1.575,0.672,-13.602,1.911,-15.329,1.355,-3.108,4.224,-9.017,-3.024,-1.319,7.049,-8.153,-3.102,1.359
2019.07.22 14:07:34.108,11.833,37.538,-9.264,5.649,1.394,0.213,-10.267,2.576,-12.046,2.725,0.137,7.486,-5.362,-0.138,3.576,10.005,-7.715,-3.888,3.293
2019.07.22 14:07:34.112,16.306,40.724,-4.776,6.585,4.890,1.286,-5.874,3.876,-7.325,4.349,1.816,9.341,-3.456,3.020,4.391,8.591,-5.828,-4.716,3.408
2019.07.22 14:07:34.116,23.880,44.797,1.000,8.988,8.435,4.038,-2.208,5.783,-2.951,5.930,0.945,9.958,-3.652,5.136,-0.238,4.063,-2.622,-4.748,2.027
2019.07.22 14:07:34.120,34.089,48.721,6.602,11.810,12.034,8.204,-0.341,7.767,-0.223,7.667,-1.921,10.289,-4.799,5.541,-8.084,-0.568,1.021,-3.655,0.558
2019.07.22 14:07:34.124,45.011,52.029,10.838,13.798,16.082,12.855,0.256,9.031,0.983,9.850,-4.991,11.015,-5.243,4.700,-14.576,-2.533,3.906,-1.959,0.125
2019.07.22 14:07:34.128,53.993,54.845,13.397,14.180,20.824,16.637,1.158,8.962,2.007,12.365,-6.342,11.896,-3.969,3.941,-15.667,-0.900,5.266,-0.668,0.648
2019.07.22 14:07:34.132,59.101,57.548,14.936,13.188,25.954,18.532,3.470,7.496,4.221,14.610,-5.088,12.038,-1.056,4.554,-10.404,3.146,5.313,-0.460,1.064
2019.07.22 14:07:34.136,60.332,60.409,16.580,11.989,30.752,18.611,6.742,5.205,7.883,15.925,-1.813,10.731,2.708,6.911,-1.456,7.274,5.142,-1.107,0.391
2019.07.22 14:07:34.140,59.627,63.410,19.128,11.962,34.587,18.086,9.312,3.032,11.927,16.151,1.977,8.064,6.552,10.214,6.669,9.379,5.969,-1.654,-1.400
2019.07.22 14:07:34.144,59.555,66.240,22.440,13.725,37.269,18.466,9.819,1.826,14.791,15.809,4.919,4.779,10.125,13.007,10.455,8.477,8.205,-1.207,-3.437
2019.07.22 14:07:34.148,61.556,68.413,25.434,16.629,38.906,20.400,8.516,1.922,15.543,15.690,6.566,1.529,13.316,13.995,9.295,4.772,11.117,0.334,-4.784
2019.07.22 14:07:34.152,65.031,69.430,26.736,19.133,39.514,23.100,7.166,2.974,14.372,16.181,7.328,-1.733,15.791,12.569,5.293,-0.823,13.365,2.234,-5.277
2019.07.22 14:07:34.156,67.913,68.993,25.596,19.867,38.853,24.865,7.535,4.158,12.149,16.886,7.737,-5.673,16.776,8.783,1.252,-7.234,14.043,3.609,-5.611
2019.07.22 14:07:34.160,68.278,67.208,22.453,18.612,36.768,24.325,9.762,4.654,9.575,16.877,7.713,-10.850,15.335,3.019,-1.548,-13.539,13.398,4.215,-6.680
2019.07.22 14:07:34.164,65.752,64.646,18.734,16.453,33.687,21.446,12.052,4.157,6.711,15.397,6.466,-16.974,10.948,-4.223,-4.157,-19.062,12.630,4.656,-8.819
2019.07.22 14:07:34.168,61.698,62.162,16.020,15.001,30.690,17.537,12.052,3.102,3.264,12.453,3.139,-22.829,3.950,-12.239,-8.820,-23.406,12.931,5.829,-11.606
2019.07.22 14:07:34.172,58.131,60.522,15.139,15.281,28.879,14.284,8.822,2.434,-0.756,8.854,-2.361,-26.945,-4.498,-19.954,-16.862,-26.528,14.527,8.112,-14.297
2019.07.22 14:07:34.176,56.271,60.039,15.797,17.139,28.457,12.627,3.769,3.027,-4.698,5.683,-9.010,-28.521,-12.848,-26.043,-27.270,-28.738,16.540,11.002,-16.421
2019.07.22 14:07:34.180,55.843,60.478,16.976,19.565,28.365,12.322,-0.242,5.129,-7.609,3.661,-15.125,-27.855,-19.727,-29.420,-37.055,-30.546,17.746,13.524,-17.962
2019.07.22 14:07:34.184,55.589,61.298,17.733,21.587,26.929,12.461,-0.910,8.181,-8.943,2.857,-19.273,-25.992,-24.290,-29.758,-43.111,-32.320,17.607,15.031,-19.051
2019.07.22 14:07:34.188,54.493,62.049,17.819,22.953,23.180,12.369,1.955,11.165,-8.946,2.909,-20.974,-23.887,-26.284,-27.605,-44.132,-33.964,16.708,15.681,-19.565
2019.07.22 14:07:34.192,52.717,62.630,17.696,24.079,17.842,12.104,6.515,13.216,-8.350,3.462,-20.706,-21.787,-25.908,-23.949,-41.147,-34.800,16.260,16.200,-19.111
2019.07.22 14:07:34.196,51.535,63.236,18.072,25.414,13.143,12.187,10.444,14.065,-7.641,4.396,-19.308,-19.265,-23.635,-19.578,-36.398,-33.834,17.110,17.164,-17.458
2019.07.22 14:07:34.200,52.364,64.079,19.351,26.847,11.489,12.906,12.613,14.024,-6.611,5.687,-17.315,-15.829,-20.058,-14.779,-31.531,-30.286,19.124,18.456,-14.956
2019.07.22 14:07:34.204,55.646,65.147,21.426,27.729,13.914,13.897,13.603,13.562,-4.636,7.096,-14.752,-11.562,-15.769,-9.574,-26.625,-24.156,21.401,19.371,-12.503
2019.07.22 14:07:34.208,60.421,66.213,23.861,27.458,19.442,14.395,14.804,12.871,-1.448,8.058,-11.467,-7.260,-11.266,-4.228,-20.754,-16.452,23.084,19.239,-10.973
2019.07.22 14:07:34.212,64.880,67.074,26.203,26.087,25.768,13.918,17.018,11.774,2.309,7.952,-7.622,-3.976,-6.904,0.533,-13.465,-8.880,24.018,17.996,-10.578
2019.07.22 14:07:34.216,67.478,67.762,28.148,24.373,30.694,12.724,19.783,10.040,5.321,6.536,-3.838,-2.351,-2.913,3.861,-5.789,-3.043,24.692,16.201,-10.709
2019.07.22 14:07:34.220,67.833,68.513,29.494,23.211,33.268,11.610,21.883,7.790,6.506,4.191,-0.848,-2.234,0.546,5.399,0.220,0.410,25.588,14.527,-10.402
2019.07.22 14:07:34.224,66.818,69.481,30.071,22.940,33.900,11.206,22.467,5.604,5.843,1.696,1.046,-2.852,3.358,5.571,3.054,2.135,26.582,13.226,-9.058
2019.07.22 14:07:34.228,65.826,70.427,29.787,23.108,33.581,11.368,21.730,4.180,4.407,-0.290,2.215,-3.380,5.492,5.195,3.089,3.563,26.960,12.046,-6.821
2019.07.22 14:07:34.232,65.747,70.709,28.786,22.874,32.982,11.227,20.596,3.816,3.537,-1.665,3.397,-3.468,7.026,4.715,2.431,5.713,26.041,10.639,-4.382
2019.07.22 14:07:34.236,66.371,69.638,27.489,21.672,32.126,9.874,19.784,4.141,3.811,-2.869,5.061,-3.383,8.094,3.732,3.259,8.150,23.811,9.032,-2.429
2019.07.22 14:07:34.240,66.617,67.001,26.403,19.579,30.748,7.131,19.145,4.343,4.660,-4.453,6.943,-3.709,8.718,1.344,5.985,8.954,20.984,7.698,-1.266
2019.07.22 14:07:34.244,65.421,63.376,25.794,17.142,28.841,3.801,17.872,3.741,4.929,-6.567,8.158,-4.861,8.684,-2.913,8.765,5.995,18.460,7.151,-0.852
2019.07.22 14:07:34.248,62.645,59.955,25.523,14.897,26.867,1.194,15.355,2.263,3.884,-8.782,7.787,-6.746,7.600,-8.298,8.866,-1.220,16.665,7.483,-1.106
2019.07.22 14:07:34.252,59.313,57.956,25.219,13.063,25.454,0.303,11.874,0.466,1.820,-10.364,5.514,-8.792,5.179,-13.025,4.821,-10.496,15.399,8.283,-2.087
2019.07.22 14:07:34.256,56.959,57.980,24.642,11.647,24.931,1.228,8.500,-0.897,-0.234,-10.795,1.824,-10.287,1.540,-15.361,-2.344,-17.732,14.266,9.040,-3.848
2019.07.22 14:07:34.260,56.496,59.704,23.897,10.739,25.114,3.221,6.281,-1.389,-1.443,-10.124,-2.355,-10.817,-2.738,-14.873,-9.818,-19.331,13.240,9.627,-6.147
2019.07.22 14:07:34.264,57.447,62.086,23.245,10.616,25.482,5.211,5.418,-1.121,-1.932,-8.944,-6.262,-10.518,-6.914,-12.853,-15.054,-14.678,12.742,10.390,-8.390
2019.07.22 14:07:34.268,58.153,63.933,22.671,11.453,25.517,6.381,5.137,-0.543,-2.722,-8.021,-9.672,-9.985,-10.532,-11.515,-17.449,-6.851,13.135,11.725,-9.964
2019.07.22 14:07:34.272,56.920,64.446,21.653,12.916,24.900,6.418,4.348,-0.047,-4.899,-7.884,-12.784,-9.886,-13.628,-12.513,-18.337,-0.817,14.101,13.525,-10.688
2019.07.22 14:07:34.276,53.302,63.454,19.473,14.093,23.483,5.398,2.545,0.302,-8.642,-8.611,-15.764,-10.500,-16.492,-15.829,-19.377,-0.189,14.583,15.067,-10.964
2019.07.22 14:07:34.280,48.559,61.273,15.938,13.976,21.247,3.545,0.210,0.716,-12.909,-9.891,-18.366,-11.482,-19.144,-19.818,-20.844,-4.820,13.489,15.499,-11.411
2019.07.22 14:07:34.284,44.879,58.403,11.907,12.189,18.397,1.117,-1.549,1.430,-15.985,-11.235,-19.955,-12.015,-21.015,-22.328,-21.340,-11.014,10.645,14.560,-12.282
2019.07.22 14:07:34.288,43.907,55.331,9.093,9.376,15.557,-1.533,-1.794,2.488,-16.521,-12.185,-19.923,-11.314,-21.196,-22.060,-19.203,-14.258,7.182,12.898,-13.158
2019.07.22 14:07:34.292,45.670,52.552,9.093,6.892,13.749,-3.871,-0.377,3.728,-14.320,-12.434,-18.156,-9.164,-19.161,-19.249,-14.328,-12.469,4.939,11.660,-13.248
2019.07.22 14:07:34.296,48.729,50.678,12.305,5.965,13.964,-5.253,2.049,4.930,-10.397,-11.898,-15.188,-6.140,-15.406,-15.331,-8.726,-7.326,5.277,11.651,-12.039
2019.07.22 14:07:34.300,51.419,50.405,17.551,6.978,16.525,-5.170,4.500,5.932,-6.364,-10.746,-11.906,-3.320,-11.394,-11.964,-5.190,-2.709,8.201,12.734,-9.765
2019.07.22 14:07:34.304,53.156,52.205,22.754,9.373,20.717,-3.528,6.216,6.656,-3.582,-9.371,-9.048,-1.667,-8.732,-10.150,-5.106,-1.528,12.469,13.975,-7.266
2019.07.22 14:07:34.308,54.713,55.890,26.225,12.210,25.076,-0.766,6.904,7.063,-2.576,-8.276,-6.855,-1.469,-8.108,-9.930,-7.262,-3.449,16.555,14.394,-5.359
2019.07.22 14:07:34.312,57.248,60.381,27.608,14.841,28.224,2.262,6.645,7.169,-2.952,-7.868,-5.108,-2.243,-8.824,-10.694,-8.743,-5.343,19.659,13.708,-4.283
2019.07.22 14:07:34.316,60.923,63.982,27.814,17.159,29.668,4.578,5.648,7.116,-3.737,-8.301,-3.492,-3.166,-9.318,-11.715,-7.253,-4.069,21.980,12.468,-3.669
2019.07.22 14:07:34.320,64.389,65.127,28.054,19.279,29.960,5.411,4.109,7.187,-3.909,-9.453,-1.962,-3.715,-8.346,-12.568,-2.993,0.647,24.117,11.516,-3.048
2019.07.22 14:07:34.324,65.694,63.224,28.799,21.026,30.090,4.449,2.205,7.658,-2.883,-11.080,-0.818,-4.050,-5.916,-13.264,1.467,5.600,26.229,11.269,-2.380
2019.07.22 14:07:34.328,63.955,59.058,29.480,21.788,30.634,1.952,0.145,8.530,-0.755,-12.985,-0.449,-4.841,-3.257,-14.142,3.218,6.338,27.724,11.422,-2.106
2019.07.22 14:07:34.332,60.375,54.457,29.144,20.910,31.343,-1.300,-1.849,9.364,1.769,-15.064,-0.950,-6.681,-1.853,-15.617,1.306,0.574,27.762,11.275,-2.660
2019.07.22 14:07:34.336,57.625,51.345,27.428,18.304,31.498,-4.240,-3.601,9.440,3.775,-17.176,-1.939,-9.520,-2.305,-17.854,-2.586,-9.794,26.079,10.363,-3.905
2019.07.22 14:07:34.340,57.919,50.747,25.010,14.708,30.663,-5.883,-5.007,8.207,4.670,-18.988,-2.734,-12.563,-3.926,-20.493,-5.585,-19.609,23.377,8.813,-5.049
2019.07.22 14:07:34.344,61.250,52.325,23.144,11.329,29.155,-5.721,-6.002,5.695,4.518,-20.013,-2.776,-14.719,-5.378,-22.647,-5.957,-23.660,20.907,7.187,-5.175
2019.07.22 14:07:34.348,65.207,54.688,22.654,9.096,27.776,-3.954,-6.520,2.566,3.950,-19.903,-2.004,-15.309,-5.785,-23.294,-4.404,-19.921,19.578,5.995,-3.964
2019.07.22 14:07:34.352,66.639,56.240,23.251,8.127,27.059,-1.417,-6.525,-0.300,3.658,-18.821,-0.903,-14.528,-5.417,-21.973,-3.298,-10.661,19.348,5.361,-2.006
2019.07.22 14:07:34.356,63.907,56.013,23.719,7.800,26.723,0.783,-6.105,-2.373,3.840,-17.546,-0.194,-13.352,-5.378,-19.335,-4.572,-0.909,19.394,5.099,-0.400
2019.07.22 14:07:34.360,58.045,54.025,22.839,7.352,25.872,1.758,-5.514,-3.735,4.051,-17.118,-0.389,-12.960,-6.589,-17.021,-8.054,4.521,18.879,5.053,0.007
2019.07.22 14:07:34.364,51.965,51.058,20.306,6.506,23.824,1.189,-5.067,-4.818,3.603,-18.180,-1.521,-14.047,-8.931,-16.771,-11.605,3.492,17.664,5.330,-0.857
2019.07.22 14:07:34.368,48.376,48.127,16.944,5.619,20.859,-0.616,-4.936,-5.840,2.237,-20.450,-3.227,-16.420,-11.280,-19.204,-12.879,-2.751,16.369,6.168,-2.397
2019.07.22 14:07:34.372,48.028,45.992,14.098,5.292,18.184,-2.968,-5.035,-6.447,0.459,-22.763,-5.092,-19.103,-12.402,-23.174,-11.190,-10.606,15.794,7.585,-3.923
2019.07.22 14:07:34.376,49.557,44.950,12.729,5.787,17.046,-5.181,-5.107,-5.919,-0.804,-23.735,-6.973,-20.832,-11.980,-26.284,-7.978,-15.988,16.217,9.176,-5.164
2019.07.22 14:07:34.380,50.832,44.842,12.866,6.724,17.680,-6.890,-4.987,-3.814,-1.020,-22.663,-9.054,-20.676,-10.910,-26.382,-5.576,-16.099,17.164,10.297,-6.295
2019.07.22 14:07:34.384,50.606,45.171,13.756,7.293,18.953,-8.174,-4.797,-0.497,-0.673,-20.043,-11.591,-18.462,-10.636,-23.066,-5.404,-10.544,17.781,10.515,-7.544
2019.07.22 14:07:34.388,49.156,45.235,14.455,6.761,19.068,-9.441,-4.873,2.918,-1.089,-17.334,-14.576,-14.850,-12.037,-18.120,-7.111,-1.608,17.429,9.929,-8.812
2019.07.22 14:07:34.392,47.583,44.347,14.352,4.919,16.838,-11.151,-5.455,5.247,-3.488,-16.095,-17.584,-11.037,-14.778,-14.481,-9.286,6.496,16.020,9.062,-9.689
2019.07.22 14:07:34.396,46.589,42.141,13.307,2.175,12.553,-13.525,-6.400,6.027,-7.952,-17.072,-19.964,-8.216,-17.598,-14.403,-10.969,9.375,13.876,8.427,-9.829
2019.07.22 14:07:34.400,45.863,38.848,11.474,-0.699,7.784,-16.364,-7.195,5.776,-13.165,-19.813,-21.228,-7.044,-19.285,-18.051,-12.582,4.714,11.374,8.120,-9.300
2019.07.22 14:07:34.404,44.526,35.307,9.093,-2.936,4.279,-19.114,-7.306,5.507,-17.209,-23.051,-21.359,-7.371,-19.553,-23.480,-15.442,-6.107,8.727,7.793,-8.547
2019.07.22 14:07:34.408,42.105,32.567,6.464,-4.056,2.791,-21.159,-6.598,5.883,-18.871,-25.502,-20.794,-8.376,-19.146,-27.959,-20.308,-18.261,6.087,7.010,-7.979
2019.07.22 14:07:34.412,39.079,31.283,4.000,-3.970,2.730,-22.178,-5.470,6.701,-18.464,-26.547,-20.109,-9.071,-19.146,-29.661,-26.250,-25.896,3.732,5.633,-7.592
2019.07.22 14:07:34.416,36.527,31.292,2.165,-2.947,2.823,-22.337,-4.570,7.130,-17.501,-26.354,-19.643,-8.879,-20.075,-28.586,-30.899,-25.519,2.049,3.922,-6.983
2019.07.22 14:07:34.420,35.257,31.742,1.207,-1.479,2.216,-22.140,-4.299,6.494,-17.460,-25.472,-19.336,-7.947,-21.483,-26.199,-31.944,-18.193,1.254,2.277,-5.768
2019.07.22 14:07:34.424,35.254,31.722,0.922,-0.081,1.123,-22.022,-4.515,4.949,-18.613,-24.309,-18.880,-6.980,-22.296,-24.245,-28.769,-8.914,1.099,0.909,-4.001
2019.07.22 14:07:34.428,35.887,30.920,0.714,0.939,0.542,-21.986,-4.662,3.460,-19.836,-22.908,-18.043,-6.729,-21.604,-23.661,-22.964,-3.416,0.936,-0.254,-2.217
2019.07.22 14:07:34.432,36.576,29.790,0.007,1.596,1.321,-21.606,-4.217,3.088,-19.559,-21.166,-16.886,-7.485,-19.273,-24.322,-17.364,-4.526,0.150,-1.341,-1.023
2019.07.22 14:07:34.436,37.181,29.033,-1.282,2.125,3.343,-20.459,-3.092,4.127,-17.102,-19.249,-15.726,-8.951,-16.003,-25.571,-14.355,-10.611,-1.347,-2.267,-0.635
2019.07.22 14:07:34.440,37.757,28.841,-2.634,2.674,5.483,-18.679,-1.693,5.793,-13.345,-17.790,-14.917,-10.548,-12.882,-26.942,-14.632,-17.121,-3.044,-2.708,-0.776
2019.07.22 14:07:34.444,37.977,28.545,-3.348,2.997,6.353,-17.149,-0.624,6.716,-10.215,-17.650,-14.634,-11.877,-10.840,-28.455,-17.160,-19.973,-4.274,-2.390,-1.025
2019.07.22 14:07:34.448,36.976,27.063,-3.177,2.453,5.257,-17.046,-0.327,5.857,-9.390,-19.364,-14.839,-12.957,-10.325,-30.321,-20.129,-18.191,-4.843,-1.425,-1.267
2019.07.22 14:07:34.452,33.953,23.857,-2.645,0.413,2.635,-18.972,-0.926,3.209,-11.205,-22.664,-15.399,-14.035,-11.293,-32.426,-22.069,-13.951,-5.275,-0.348,-1.792
2019.07.22 14:07:34.456,29.094,19.615,-2.715,-3.141,-0.301,-22.287,-2.324,-0.229,-14.526,-26.427,-16.199,-15.181,-13.331,-34.126,-22.397,-10.315,-6.409,0.231,-2.923
2019.07.22 14:07:34.460,23.919,16.046,-4.006,-7.294,-2.400,-25.216,-4.379,-3.077,-17.619,-29.138,-17.141,-16.043,-15.774,-34.529,-21.249,-8.722,-8.631,0.104,-4.531
2019.07.22 14:07:34.464,20.567,14.834,-6.180,-10.486,-3.254,-25.786,-6.927,-4.348,-19.281,-29.589,-18.037,-16.026,-17.823,-33.061,-19.028,-8.286,-11.368,-0.340,-5.943
2019.07.22 14:07:34.468,20.410,16.488,-8.023,-11.337,-3.258,-23.021,-9.662,-3.839,-19.450,-27.443,-18.595,-14.772,-18.774,-29.868,-16.143,-7.243,-13.304,-0.401,-6.396
2019.07.22 14:07:34.472,23.083,19.986,-8.240,-9.480,-3.088,-17.597,-12.065,-2.029,-18.948,-23.368,-18.558,-12.536,-18.355,-25.777,-13.076,-5.009,-13.206,0.402,-5.698
2019.07.22 14:07:34.476,26.729,23.458,-6.374,-5.842,-3.093,-11.492,-13.554,0.310,-18.725,-18.730,-17.940,-10.112,-16.974,-21.899,-10.512,-2.880,-10.750,1.961,-4.489
2019.07.22 14:07:34.480,29.293,25.397,-3.180,-2.136,-3.084,-6.887,-13.813,2.446,-19.226,-15.048,-17.112,-8.340,-15.605,-19.160,-9.232,-2.743,-6.747,3.674,-3.817
2019.07.22 14:07:34.484,29.824,25.461,-0.167,0.106,-2.687,-5.056,-13.056,3.810,-20.284,-13.470,-16.594,-7.578,-15.265,-18.036,-9.734,-5.087,-2.638,4.897,-4.318
2019.07.22 14:07:34.488,28.782,24.310,1.330,0.315,-1.924,-5.932,-11.946,4.029,-21.458,-14.437,-16.644,-7.574,-16.363,-18.548,-11.868,-8.253,0.305,5.356,-5.674
2019.07.22 14:07:34.492,27.210,22.740,0.860,-1.000,-1.508,-8.493,-11.229,2.999,-22.440,-17.598,-16.975,-7.821,-18.407,-20.402,-14.831,-9.775,1.503,5.211,-6.816
2019.07.22 14:07:34.496,25.614,20.933,-1.104,-2.790,-2.529,-11.529,-11.327,1.020,-23.196,-21.961,-16.886,-8.060,-20.336,-23.128,-17.572,-8.685,1.018,4.769,-6.730
2019.07.22 14:07:34.500,23.602,18.467,-3.704,-4.200,-5.682,-14.191,-12.225,-1.184,-23.854,-26.226,-15.795,-8.483,-21.303,-26.172,-19.360,-6.635,-0.824,4.161,-5.212
2019.07.22 14:07:34.504,20.556,15.032,-6.274,-4.989,-10.561,-16.057,-13.691,-2.719,-24.500,-29.237,-13.773,-9.442,-21.332,-28.981,-20.131,-6.640,-3.715,3.285,-2.981
2019.07.22 14:07:34.508,16.667,11.113,-8.499,-5.423,-15.564,-16.914,-15.587,-2.958,-25.096,-30.411,-11.647,-10.934,-21.323,-31.108,-20.391,-10.324,-7.284,2.041,-1.095
2019.07.22 14:07:34.512,13.247,7.942,-10.148,-5.847,-18.584,-16.632,-17.929,-1.910,-25.497,-29.951,-10.499,-12.361,-22.342,-32.315,-20.791,-16.058,-10.856,0.588,-0.167
2019.07.22 14:07:34.516,11.920,6.654,-10.786,-6.333,-18.109,-15.304,-20.657,-0.218,-25.483,-28.711,-10.882,-12.849,-24.690,-32.612,-21.668,-19.802,-13.457,-0.659,-0.031
2019.07.22 14:07:34.520,13.326,7.360,-9.885,-6.653,-14.081,-13.440,-23.354,1.230,-24.771,-27.718,-12.351,-11.930,-27.459,-32.234,-22.827,-18.250,-14.237,-1.325,-0.057
2019.07.22 14:07:34.524,16.471,8.946,-7.322,-6.508,-7.956,-11.864,-25.283,1.827,-23.091,-27.613,-13.697,-10.028,-28.960,-31.578,-23.665,-11.816,-13.067,-1.398,0.215
2019.07.22 14:07:34.528,19.363,9.886,-3.811,-5.774,-1.920,-11.249,-25.823,1.531,-20.376,-28.318,-13.756,-8.302,-27.792,-31.132,-23.522,-4.876,-10.785,-1.260,0.716
2019.07.22 14:07:34.532,20.455,9.425,-0.741,-4.565,2.266,-11.604,-24.992,0.746,-16.994,-29.156,-12.225,-7.900,-23.816,-31.381,-22.050,-2.769,-8.772,-1.375,1.014
2019.07.22 14:07:34.536,19.730,8.191,0.640,-3.125,4.063,-12.201,-23.584,-0.055,-13.775,-29.330,-9.869,-9.156,-18.361,-32.638,-19.426,-7.689,-8.057,-1.877,0.799
2019.07.22 14:07:34.540,18.525,7.691,0.148,-1.677,4.150,-12.090,-22.721,-0.665,-11.686,-28.456,-7.967,-11.316,-13.500,-34.825,-16.316,-16.651,-8.598,-2.437,0.194
2019.07.22 14:07:34.544,18.283,9.076,-1.063,-0.377,3.690,-10.859,-23.103,-1.182,-11.278,-26.793,-7.429,-13.038,-10.898,-37.356,-13.622,-23.288,-9.293,-2.520,-0.395
2019.07.22 14:07:34.548,19.294,12.159,-1.216,0.639,3.439,-9.017,-24.538,-1.812,-12.303,-25.035,-8.228,-13.287,-10.971,-39.298,-12.115,-22.337,-8.779,-1.838,-0.704
2019.07.22 14:07:34.552,20.472,15.455,0.780,1.206,3.302,-7.675,-26.151,-2.656,-13.855,-23.874,-9.549,-12.023,-12.876,-39.838,-12.139,-13.588,-6.461,-0.613,-0.890
2019.07.22 14:07:34.556,20.276,17.194,4.384,1.140,2.603,-7.737,-27.115,-3.677,-15.012,-23.663,-10.482,-10.205,-15.247,-38.843,-13.539,-2.385,-3.028,0.570,-1.385
2019.07.22 14:07:34.560,17.963,16.487,7.599,0.293,0.781,-9.260,-27.305,-4.852,-15.523,-24.407,-10.696,-9.177,-17.108,-37.120,-15.816,3.776,-0.060,1.199,-2.477
2019.07.22 14:07:34.564,14.110,13.776,8.269,-1.385,-2.056,-11.498,-27.330,-6.292,-16.001,-26.006,-10.588,-9.864,-18.355,-36.098,-18.427,0.188,0.992,1.194,-4.029
2019.07.22 14:07:34.568,10.084,10.311,5.630,-3.815,-5.113,-13.553,-27.898,-8.171,-17.405,-28.441,-10.860,-12.288,-19.563,-37.022,-20.991,-11.953,-0.237,0.923,-5.595
2019.07.22 14:07:34.572,7.016,7.224,1.001,-6.741,-7.416,-15.055,-29.051,-10.469,-20.185,-31.687,-11.905,-15.624,-21.356,-40.134,-23.315,-26.306,-2.786,0.898,-6.828
2019.07.22 14:07:34.576,5.222,4.972,-2.932,-9.662,-8.396,-16.281,-29.928,-12.750,-23.750,-35.387,-13.508,-18.661,-23.848,-44.396,-25.260,-35.371,-4.961,1.410,-7.762
2019.07.22 14:07:34.580,4.448,3.526,-3.785,-11.832,-8.119,-17.624,-29.321,-14.212,-26.708,-38.643,-15.039,-20.378,-26.524,-48.004,-26.630,-34.986,-5.343,2.400,-8.693
2019.07.22 14:07:34.584,4.544,2.914,-0.961,-12.443,-7.024,-18.949,-26.599,-14.046,-27.741,-40.233,-15.918,-20.348,-28.586,-49.410,-27.213,-26.511,-3.553,3.592,-9.780
2019.07.22 14:07:34.588,5.776,3.471,4.047,-11.012,-5.483,-19.475,-22.278,-11.896,-26.476,-39.244,-15.950,-18.865,-29.449,-48.205,-26.957,-15.544,-0.340,4.720,-10.771
2019.07.22 14:07:34.592,8.432,5.468,8.726,-7.770,-3.581,-18.352,-17.777,-8.129,-23.732,-35.727,-15.314,-16.765,-29.050,-45.255,-26.092,-8.275,2.957,5.622,-11.160
2019.07.22 14:07:34.596,12.136,8.457,11.167,-3.756,-1.303,-15.483,-14.513,-3.708,-20.987,-30.835,-14.305,-15.019,-27.809,-42.026,-25.056,-7.878,5.183,6.177,-10.672
2019.07.22 14:07:34.600,15.628,11.074,11.127,-0.413,1.092,-11.842,-13.023,0.258,-19.487,-26.243,-13.140,-14.218,-26.353,-39.544,-24.232,-13.061,5.893,6.203,-9.616
2019.07.22 14:07:34.604,17.402,11.652,9.858,1.159,2.933,-8.936,-12.725,3.017,-19.614,-23.169,-11.970,-14.204,-25.208,-37.728,-23.719,-19.406,5.425,5.508,-8.738
2019.07.22 14:07:34.608,16.757,9.339,8.979,0.839,3.475,-7.778,-12.448,4.461,-20.859,-21.664,-11.014,-14.110,-24.637,-35.548,-23.322,-22.422,4.583,4.072,-8.636
2019.07.22 14:07:34.612,14.403,4.846,9.347,-0.431,2.521,-8.162,-11.259,5.062,-22.267,-20.695,-10.565,-12.883,-24.608,-31.899,-22.762,-20.336,4.194,2.189,-9.229
2019.07.22 14:07:34.616,12.075,0.174,10.734,-1.217,0.813,-8.851,-8.975,5.526,-22.924,-18.981,-10.762,-10.040,-24.830,-26.542,-21.899,-14.917,4.801,0.404,-9.758
2019.07.22 14:07:34.620,11.430,-2.569,12.458,-0.459,-0.192,-8.516,-6.042,6.374,-22.216,-15.967,-11.306,-6.152,-24.810,-20.447,-20.741,-9.907,6.576,-0.781,-9.356
2019.07.22 14:07:34.624,13.081,-2.442,14.269,1.941,0.863,-6.728,-3.011,7.670,-19.848,-12.222,-11.449,-2.623,-23.962,-15.269,-19.261,-8.179,9.393,-1.189,-7.740
2019.07.22 14:07:34.628,16.456,-0.127,16.651,5.175,4.343,-4.221,-0.098,9.003,-15.874,-8.982,-10.386,-0.830,-21.836,-12.308,-17.274,-9.582,12.946,-1.043,-5.434
2019.07.22 14:07:34.632,20.428,2.712,20.241,8.119,9.288,-2.282,2.834,9.715,-10.812,-7.218,-7.845,-1.181,-18.407,-11.695,-14.595,-11.062,16.803,-0.758,-3.374
2019.07.22 14:07:34.636,24.052,4.642,24.869,10.007,13.881,-1.785,5.936,9.268,-5.703,-6.954,-4.427,-2.809,-14.257,-12.366,-11.454,-9.118,20.428,-0.628,-2.219
2019.07.22 14:07:34.640,26.785,5.315,29.141,10.732,16.446,-2.616,9.058,7.546,-1.857,-7.362,-1.357,-4.198,-10.458,-12.832,-8.761,-2.930,23.234,-0.673,-1.970
2019.07.22 14:07:34.644,28.198,5.430,31.086,10.675,16.321,-3.893,11.740,4.951,-0.271,-7.510,0.227,-4.326,-8.129,-12.201,-7.815,4.283,24.733,-0.726,-2.182
2019.07.22 14:07:34.648,27.726,5.936,29.528,10.307,14.057,-4.703,13.531,2.229,-1.036,-7.137,-0.007,-3.447,-7.873,-10.695,-9.475,7.015,24.761,-0.656,-2.499
2019.07.22 14:07:34.652,24.914,7.200,25.145,9.927,10.902,-4.737,14.329,0.122,-3.220,-6.821,-1.409,-2.888,-9.438,-9.300,-13.334,1.467,23.656,-0.493,-3.017
2019.07.22 14:07:34.656,20.037,8.727,20.306,9.665,7.961,-4.382,14.461,-0.952,-5.405,-7.429,-2.819,-3.957,-11.853,-8.842,-17.620,-11.057,22.210,-0.340,-4.110
2019.07.22 14:07:34.660,14.410,9.571,17.621,9.600,5.622,-4.299,14.434,-1.013,-6.577,-9.328,-3.356,-6.827,-13.967,-9.232,-20.135,-24.149,21.350,-0.187,-5.917
2019.07.22 14:07:34.664,9.853,8.993,18.173,9.767,3.554,-4.940,14.583,-0.387,-6.720,-12.024,-2.947,-10.284,-15.071,-9.487,-19.708,-30.221,21.638,0.167,-8.004
2019.07.22 14:07:34.668,7.502,6.877,20.690,9.999,1.161,-6.372,14.873,0.561,-6.696,-14.513,-2.241,-12.577,-15.181,-8.552,-17.124,-25.868,22.881,0.962,-9.547
2019.07.22 14:07:34.672,6.907,3.677,22.312,9.822,-1.910,-8.443,14.986,1.626,-7.484,-16.030,-2.036,-12.718,-14.844,-6.254,-14.736,-14.701,24.112,2.198,-9.923
2019.07.22 14:07:34.676,6.239,0.077,20.488,8.608,-5.552,-11.004,14.584,2.764,-9.399,-16.554,-2.676,-11.192,-14.606,-3.573,-14.854,-5.215,24.036,3.494,-9.169
2019.07.22 14:07:34.680,3.641,-3.311,14.670,6.017,-9.326,-13.926,13.533,3.959,-11.859,-16.637,-3.848,-9.497,-14.578,-1.910,-18.010,-4.835,21.744,4.228,-7.909
2019.07.22 14:07:34.684,-1.256,-6.040,6.669,2.397,-12.724,-16.903,11.978,5.119,-13.840,-16.739,-4.885,-8.900,-14.366,-1.838,-22.357,-14.367,17.286,3.913,-6.796
2019.07.22 14:07:34.688,-6.824,-7.782,-0.543,-1.205,-15.299,-19.324,10.256,6.112,-14.587,-16.642,-5.261,-9.398,-13.417,-2.343,-24.735,-27.074,11.766,2.526,-5.973
2019.07.22 14:07:34.692,-10.398,-8.312,-4.686,-3.531,-16.620,-20.434,8.767,6.928,-13.989,-15.485,-4.920,-9.755,-11.468,-1.255,-22.742,-33.319,6.869,0.558,-5.056
2019.07.22 14:07:34.696,-10.002,-7.571,-5.403,-3.806,-16.187,-19.710,7.840,7.788,-12.388,-12.402,-4.234,-8.548,-8.768,3.296,-16.365,-27.505,4.080,-1.263,-3.633
2019.07.22 14:07:34.700,-5.570,-5.714,-4.114,-2.142,-13.565,-17.172,7.614,9.056,-10.084,-7.255,-3.705,-5.371,-5.940,11.418,-8.043,-12.141,4.022,-2.370,-1.825
2019.07.22 14:07:34.704,1.159,-3.039,-2.786,0.623,-8.740,-13.343,7.948,10.981,-7.082,-0.852,-3.668,-1.210,-3.606,21.136,-1.139,4.036,6.247,-2.618,-0.350
2019.07.22 14:07:34.708,7.854,0.154,-2.596,3.517,-2.477,-8.886,8.428,13.453,-3.311,5.512,-4.181,2.303,-2.085,29.525,2.102,12.441,9.558,-2.267,0.011
2019.07.22 14:07:34.712,12.878,3.644,-3.437,5.976,3.685,-4.232,8.553,15.981,0.921,10.822,-5.083,4.103,-1.341,34.553,1.694,10.627,12.610,-1.758,-0.884
2019.07.22 14:07:34.716,15.763,7.212,-4.403,7.969,7.973,0.502,8.068,17.937,4.771,14.805,-6.089,4.375,-1.140,36.274,-0.506,3.325,14.467,-1.465,-2.307
2019.07.22 14:07:34.720,16.780,10.494,-4.719,9.669,9.255,5.269,7.243,18.892,7.269,17.775,-6.840,4.183,-1.238,36.507,-2.347,-2.042,14.843,-1.565,-3.130
2019.07.22 14:07:34.724,16.272,12.977,-4.313,11.037,7.725,9.781,6.834,18.795,8.036,20.092,-6.972,4.425,-1.447,37.257,-2.851,-1.604,14.005,-2.041,-2.646
2019.07.22 14:07:34.728,14.443,14.227,-3.698,11.710,4.884,13.464,7.644,17.885,7.667,21.752,-6.252,5.049,-1.600,39.149,-2.621,2.080,12.455,-2.761,-1.065
2019.07.22 14:07:34.732,11.669,14.217,-3.448,11.283,2.724,15.747,9.910,16.432,7.371,22.454,-4.774,5.185,-1.551,41.079,-3.041,2.733,10.621,-3.555,0.709
2019.07.22 14:07:34.736,8.765,13.438,-3.788,9.714,2.540,16.442,12.940,14.545,8.033,22.042,-3.053,4.060,-1.267,41.318,-4.987,-3.714,8.691,-4.274,1.815
2019.07.22 14:07:34.740,6.716,12.621,-4.636,7.457,4.125,15.888,15.364,12.200,9.450,20.827,-1.859,1.823,-0.958,39.124,-8.027,-15.037,6.642,-4.840,2.057
2019.07.22 14:07:34.744,5.961,12.224,-5.917,5.179,5.919,14.718,15.913,9.436,10.383,19.459,-1.814,-0.456,-1.035,35.486,-10.627,-23.972,4.386,-5.279,1.900
2019.07.22 14:07:34.748,5.925,12.077,-7.752,3.272,6.063,13.447,14.259,6.501,9.481,18.399,-2.988,-1.654,-1.853,32.378,-11.142,-23.882,1.924,-5.667,1.903
2019.07.22 14:07:34.752,5.394,11.501,-10.307,1.568,3.666,12.200,11.288,3.789,6.363,17.501,-4.812,-1.584,-3.392,31.135,-8.895,-14.196,-0.609,-6.031,2.121
2019.07.22 14:07:34.756,3.553,9.841,-13.482,-0.507,-0.587,10.771,8.578,1.591,2.016,16.083,-6.401,-1.222,-5.151,31.305,-4.694,-1.132,-3.050,-6.243,2.019
2019.07.22 14:07:34.760,0.816,6.998,-16.818,-3.457,-4.953,8.905,7.368,-0.129,-1.875,13.503,-7.119,-1.953,-6.448,30.956,-0.523,6.933,-5.367,-6.047,0.974
2019.07.22 14:07:34.764,-1.388,3.520,-19.789,-7.298,-7.931,6.529,7.718,-1.742,-4.168,9.741,-6.959,-4.428,-6.938,28.213,1.389,5.738,-7.743,-5.225,-1.085
2019.07.22 14:07:34.768,-1.842,0.190,-22.255,-11.502,-9.409,3.757,8.466,-3.700,-5.104,5.485,-6.494,-7.987,-6.960,22.765,-0.345,-1.967,-10.481,-3.818,-3.475
2019.07.22 14:07:34.772,-0.779,-2.543,-24.617,-15.326,-10.775,0.728,8.011,-6.218,-6.089,1.618,-6.403,-11.101,-7.360,16.136,-5.498,-9.113,-13.734,-2.209,-5.175
2019.07.22 14:07:34.776,0.012,-4.788,-27.467,-18.249,-13.849,-2.509,5.389,-9.104,-8.549,-1.443,-6.946,-12.469,-8.832,10.524,-12.135,-10.211,-17.280,-0.961,-5.510
2019.07.22 14:07:34.780,-1.516,-6.927,-30.971,-20.193,-19.364,-5.934,0.876,-11.846,-12.755,-3.981,-7.776,-11.863,-11.264,7.225,-17.292,-5.536,-20.520,-0.498,-4.558
2019.07.22 14:07:34.784,-5.906,-9.091,-34.536,-21.431,-26.124,-9.380,-4.266,-13.869,-17.493,-6.556,-8.222,-10.048,-13.606,5.942,-18.263,-0.259,-22.787,-0.849,-2.970
2019.07.22 14:07:34.788,-11.429,-10.909,-37.114,-22.296,-31.524,-12.484,-8.677,-14.790,-20.844,-9.295,-7.815,-7.944,-14.459,5.475,-13.922,0.539,-23.782,-1.665,-1.422
2019.07.22 14:07:34.792,-15.049,-11.773,-37.926,-22.947,-33.138,-14.845,-11.732,-14.545,-21.455,-11.571,-6.654,-5.815,-13.004,5.076,-5.400,-3.406,-23.802,-2.490,-0.182
2019.07.22 14:07:34.796,-14.491,-11.423,-37.030,-23.332,-30.287,-16.311,-13.721,-13.401,-19.353,-12.425,-5.316,-3.210,-9.571,5.160,4.377,-7.145,-23.543,-3.066,0.887
2019.07.22 14:07:34.800,-9.851,-10.312,-35.215,-23.307,-24.486,-17.125,-15.293,-11.903,-15.759,-11.450,-4.395,0.281,-5.424,6.688,12.157,-4.835,-23.566,-3.436,1.964
2019.07.22 14:07:34.804,-3.521,-9.398,-33.286,-22.792,-18.451,-17.786,-16.665,-10.758,-12.136,-9.390,-4.010,4.193,-1.896,9.779,16.040,4.873,-23.827,-3.780,2.971
2019.07.22 14:07:34.808,1.506,-9.499,-31.370,-21.836,-14.399,-18.717,-17.279,-10.635,-9.255,-7.869,-3.679,7.071,0.447,12.867,16.318,16.943,-23.655,-4.156,3.612
2019.07.22 14:07:34.812,3.619,-10.725,-28.854,-20.615,-12.818,-19.999,-16.215,-11.853,-6.978,-8.347,-2.671,7.318,1.965,13.382,14.892,23.300,-22.271,-4.412,3.713
2019.07.22 14:07:34.816,3.386,-12.454,-25.090,-19.387,-12.533,-21.384,-13.064,-14.126,-4.804,-11.070,-0.582,4.388,3.326,9.571,13.666,18.837,-19.487,-4.353,3.486
2019.07.22 14:07:34.820,2.678,-13.868,-20.252,-18.440,-11.878,-22.556,-8.562,-16.566,-2.628,-14.845,2.258,-0.626,4.665,2.043,13.042,5.367,-16.036,-4.017,3.431
2019.07.22 14:07:34.824,2.963,-14.587,-15.591,-18.029,-10.034,-23.390,-4.428,-18.077,-1.022,-17.886,4.886,-5.539,5.287,-6.324,11.682,-9.592,-13.237,-3.775,3.927
2019.07.22 14:07:34.828,4.157,-14.881,-12.757,-18.292,-7.557,-24.004,-2.437,-17.996,-0.815,-19.116,6.252,-8.391,4.211,-12.219,7.768,-18.169,-12.179,-4.116,4.871
2019.07.22 14:07:34.832,4.864,-15.316,-12.663,-19.201,-5.818,-24.579,-3.357,-16.568,-2.348,-18.947,5.876,-8.589,1.164,-14.139,0.852,-17.466,-13.037,-5.268,5.703
2019.07.22 14:07:34.836,3.624,-16.178,-14.790,-20.591,-5.914,-25.152,-6.486,-14.882,-5.060,-18.921,4.167,-7.052,-2.832,-13.324,-7.152,-10.902,-15.027,-6.973,5.825
2019.07.22 14:07:34.840,0.094,-17.200,-17.528,-22.286,-7.941,-25.578,-10.145,-14.232,-7.756,-20.464,2.187,-5.320,-5.867,-12.633,-12.764,-4.903,-17.049,-8.631,5.068
2019.07.22 14:07:34.844,-4.742,-17.825,-19.340,-24.224,-11.094,-25.673,-12.769,-15.279,-9.376,-23.687,1.004,-4.378,-6.343,-14.237,-13.124,-3.856,-18.523,-9.729,3.822
2019.07.22 14:07:34.848,-9.339,-17.750,-19.844,-26.454,-14.380,-25.393,-13.821,-17.613,-9.661,-27.162,1.048,-4.063,-4.113,-17.932,-8.072,-7.287,-19.761,-10.206,2.724
2019.07.22 14:07:34.852,-12.591,-17.268,-19.970,-29.006,-17.262,-24.859,-13.922,-20.027,-9.221,-28.841,1.906,-3.463,-0.653,-21.341,-0.536,-11.096,-21.599,-10.456,2.182
2019.07.22 14:07:34.856,-14.290,-17.097,-21.067,-31.723,-19.743,-24.238,-14.145,-21.336,-8.990,-27.470,2.670,-1.868,1.903,-21.804,5.184,-11.348,-24.592,-10.948,2.122
2019.07.22 14:07:34.860,-14.879,-17.840,-23.694,-34.222,-21.948,-23.625,-15.076,-21.141,-9.527,-23.467,2.618,0.529,2.192,-18.414,6.173,-7.303,-28.423,-11.783,2.152
2019.07.22 14:07:34.864,-14.904,-19.529,-27.040,-36.056,-23.708,-23.066,-16.342,-19.992,-10.682,-18.648,1.727,2.720,0.458,-12.617,2.781,-1.433,-31.995,-12.550,1.940
2019.07.22 14:07:34.868,-14.707,-21.604,-29.446,-36.936,-24.553,-22.659,-16.935,-18.841,-11.835,-15.021,0.684,3.645,-1.784,-6.997,-1.689,3.121,-34.114,-12.618,1.482
2019.07.22 14:07:34.872,-14.458,-23.289,-29.589,-36.842,-24.115,-22.564,-16.023,-18.219,-12.438,-13.515,0.381,2.986,-2.972,-3.304,-3.288,5.151,-34.236,-11.615,1.035
2019.07.22 14:07:34.876,-14.271,-24.036,-27.406,-35.901,-22.504,-22.818,-13.604,-17.783,-12.382,-13.498,1.269,1.369,-2.600,-1.303,-0.081,5.853,-32.704,-9.728,0.831
2019.07.22 14:07:34.880,-14.123,-23.689,-24.069,-34.173,-20.285,-23.075,-10.485,-16.577,-11.926,-13.361,3.061,-0.122,-1.381,0.708,6.708,7.086,-30.352,-7.575,0.861
2019.07.22 14:07:34.884,-13.659,-22.343,-21.075,-31.566,-18.062,-22.581,-7.676,-13.803,-11.292,-11.704,5.002,-0.695,-0.389,4.258,13.798,9.320,-27.864,-5.788,0.940
2019.07.22 14:07:34.888,-12.223,-20.135,-19.218,-28.022,-16.072,-20.569,-5.706,-9.530,-10.355,-8.284,6.489,-0.271,0.039,9.322,18.291,11.264,-25.397,-4.646,0.966
2019.07.22 14:07:34.892,-9.297,-17.220,-18.202,-23.820,-14.168,-16.877,-4.402,-4.809,-8.720,-4.162,7.551,0.684,0.672,14.284,19.565,11.431,-22.734,-4.025,1.100
2019.07.22 14:07:34.896,-5.096,-13.913,-17.112,-19.700,-12.210,-12.316,-3.245,-1.120,-6.165,-0.995,8.768,1.686,2.703,17.178,19.243,10.011,-19.720,-3.662,1.669
2019.07.22 14:07:34.900,-0.759,-10.773,-15.277,-16.593,-10.447,-8.393,-1.937,0.464,-3.043,-0.016,10.689,2.616,6.545,17.139,19.402,9.112,-16.571,-3.450,2.853
2019.07.22 14:07:34.904,2.180,-8.417,-12.820,-15.074,-9.477,-6.439,-0.666,-0.157,-0.280,-1.325,13.211,3.688,11.166,14.937,20.583,10.936,-13.767,-3.509,4.436
2019.07.22 14:07:34.908,2.741,-7.145,-10.499,-14.949,-9.737,-6.731,0.145,-2.143,1.127,-3.876,15.472,5.076,14.590,12.292,21.319,15.501,-11.661,-3.983,5.874
2019.07.22 14:07:34.912,1.155,-6.690,-9.092,-15.341,-10.979,-8.258,0.329,-4.239,0.781,-6.079,16.434,6.624,15.285,10.645,19.633,20.087,-10.198,-4.802,6.666
2019.07.22 14:07:34.916,-1.321,-6.359,-8.835,-15.263,-12.224,-9.358,0.214,-5.428,-0.782,-6.615,15.735,7.938,13.393,10.402,15.290,21.234,-8.989,-5.640,6.733
2019.07.22 14:07:34.920,-3.287,-5.510,-9.347,-14.271,-12.327,-8.822,0.360,-5.347,-2.357,-5.014,14.145,8.786,10.793,11.126,10.806,17.840,-7.667,-6.133,6.515
2019.07.22 14:07:34.924,-4.055,-3.986,-9.977,-12.686,-10.758,-6.645,1.013,-4.294,-2.811,-1.752,13.150,9.437,9.854,12.315,10.103,12.714,-6.188,-6.160,6.671
2019.07.22 14:07:34.928,-3.798,-2.173,-10.223,-11.217,-7.960,-3.923,1.791,-2.944,-1.781,2.099,13.913,10.537,11.721,13.953,15.536,10.978,-4.792,-5.930,7.603
2019.07.22 14:07:34.932,-2.983,-0.635,-9.888,-10.304,-5.019,-2.006,1.924,-1.955,0.118,5.417,16.324,12.542,15.420,16.335,25.545,16.190,-3.702,-5.789,9.139
2019.07.22 14:07:34.936,-1.725,0.320,-8.970,-9.764,-2.923,-1.600,0.895,-1.673,1.725,7.478,18.927,15.109,18.459,19.400,34.933,27.080,-2.855,-5.922,10.594
2019.07.22 14:07:34.940,0.237,0.758,-7.528,-9.053,-2.024,-2.474,-1.059,-2.008,2.065,8.121,19.834,17.005,18.547,22.271,37.957,37.590,-1.964,-6.208,11.162
2019.07.22 14:07:34.944,2.900,0.851,-5.737,-7.921,-2.106,-3.892,-3.067,-2.528,0.914,7.622,18.036,16.727,15.207,23.555,32.241,40.576,-0.857,-6.354,10.389
2019.07.22 14:07:34.948,5.370,0.518,-4.059,-6.869,-2.894,-5.314,-4.287,-2.732,-1.184,6.421,14.136,13.532,10.118,22.254,20.685,32.740,0.226,-6.189,8.427
2019.07.22 14:07:34.952,6.046,-0.592,-3.269,-6.927,-4.465,-6.719,-4.587,-2.366,-3.368,4.890,9.975,8.140,5.960,18.597,9.813,17.263,0.706,-5.833,5.959
2019.07.22 14:07:34.956,3.698,-2.702,-4.136,-8.844,-7.148,-8.336,-4.644,-1.609,-5.042,3.268,7.384,2.562,4.590,14.084,5.547,2.137,0.099,-5.591,3.852
2019.07.22 14:07:34.960,-1.345,-5.444,-6.896,-12.329,-10.988,-10.106,-5.346,-0.986,-6.162,1.732,6.995,-0.973,5.857,10.641,9.304,-4.847,-1.511,-5.652,2.730
2019.07.22 14:07:34.964,-6.998,-7.826,-10.895,-15.994,-15.336,-11.464,-6.987,-1.012,-7.090,0.484,7.947,-1.331,7.859,9.431,17.198,-1.072,-3.397,-5.867,2.685
2019.07.22 14:07:34.968,-10.583,-8.799,-14.747,-18.148,-19.013,-11.685,-8.950,-1.788,-8.177,-0.259,8.653,0.822,8.393,10.165,22.881,9.305,-4.590,-5.812,3.244
2019.07.22 14:07:34.972,-10.631,-8.031,-16.988,-17.902,-21.006,-10.532,-10.176,-2.862,-9.428,-0.400,8.022,3.439,6.505,11.369,21.970,18.212,-4.501,-5.105,3.626
2019.07.22 14:07:34.976,-7.921,-6.236,-16.832,-15.750,-21.139,-8.588,-10.036,-3.483,-10.460,-0.077,6.180,4.375,3.055,11.417,14.877,18.982,-3.265,-3.723,3.163
2019.07.22 14:07:34.980,-4.915,-4.682,-14.528,-13.168,-20.130,-6.925,-8.882,-3.109,-10.757,0.363,4.226,2.732,-0.029,9.602,6.124,10.600,-1.573,-2.065,1.684
2019.07.22 14:07:34.984,-3.926,-4.183,-11.105,-11.515,-18.958,-6.306,-7.763,-1.788,-9.974,0.589,3.289,-0.651,-1.167,6.565,0.835,-1.871,-0.133,-0.690,-0.364
2019.07.22 14:07:34.988,-5.410,-4.345,-7.718,-11.053,-18.034,-6.560,-7.532,-0.088,-8.095,0.576,3.680,-3.823,-0.142,3.853,1.144,-10.777,0.814,0.046,-2.158
2019.07.22 14:07:34.992,-7.665,-3.707,-5.033,-10.812,-16.900,-6.627,-8.075,1.370,-5.348,0.751,4.774,-5.026,1.956,2.929,5.120,-10.843,1.579,0.203,-2.977
2019.07.22 14:07:34.996,-8.142,-0.753,-3.040,-9.384,-14.679,-5.279,-8.341,2.436,-2.046,1.821,5.649,-3.763,3.712,4.285,8.759,-2.351,2.695,0.144,-2.630
2019.07.22 14:07:35.000,-5.322,4.918,-1.291,-6.040,-10.909,-1.975,-7.178,3.553,1.518,4.330,5.876,-0.958,4.439,7.156,9.252,9.372,4.491,0.235,-1.533
2019.07.22 14:07:35.004,0.260,12.134,0.669,-1.330,-6.048,2.757,-4.294,5.354,5.040,8.203,5.805,1.819,4.524,9.971,6.900,17.578,6.881,0.577,-0.387
2019.07.22 14:07:35.008,6.497,18.734,3.012,3.233,-1.240,7.632,-0.556,8.028,8.137,12.565,6.171,3.422,4.883,11.218,4.348,18.305,9.485,0.983,0.321
2019.07.22 14:07:35.012,11.206,22.760,5.599,6.143,2.446,11.323,2.647,10.979,10.378,16.028,7.406,3.727,6.056,10.229,4.036,12.472,11.885,1.155,0.631
2019.07.22 14:07:35.016,13.400,23.431,8.127,6.791,4.654,13.051,4.452,13.102,11.460,17.311,9.271,3.426,7.729,7.475,6.106,4.760,13.782,0.918,0.992
2019.07.22 14:07:35.020,13.505,21.279,10.286,5.691,5.754,12.746,5.122,13.491,11.407,15.896,11.089,3.288,9.023,4.238,8.457,0.295,14.960,0.293,1.837
2019.07.22 14:07:35.024,12.582,17.529,11.830,3.951,6.312,10.846,5.730,12.070,10.628,12.353,12.325,3.557,9.270,1.888,8.719,1.441,15.179,-0.597,3.193
2019.07.22 14:07:35.028,11.394,13.305,12.586,2.477,6.528,8.019,7.196,9.657,9.749,8.119,12.990,3.905,8.581,1.175,6.338,6.705,14.175,-1.686,4.640
2019.07.22 14:07:35.032,10.055,9.236,12.466,1.478,6.149,5.010,9.496,7.412,9.287,4.840,13.497,3.899,7.725,1.912,2.968,12.174,11.825,-3.013,5.639
2019.07.22 14:07:35.036,8.357,5.613,11.502,0.583,4.869,2.563,11.681,6.105,9.403,3.603,14.159,3.482,7.450,3.198,0.942,14.255,8.344,-4.619,5.948
2019.07.22 14:07:35.040,6.258,2.743,9.859,-0.627,2.787,1.256,12.677,5.734,9.874,4.452,14.785,3.025,7.829,4.023,1.239,11.819,4.325,-6.377,5.752
2019.07.22 14:07:35.044,4.002,1.087,7.787,-2.107,0.465,1.262,12.175,5.727,10.312,6.460,14.771,2.935,8.203,3.857,2.761,6.487,0.571,-7.920,5.419
2019.07.22 14:07:35.048,1.849,1.040,5.547,-3.261,-1.450,2.196,10.880,5.503,10.448,8.289,13.615,3.192,7.769,2.892,3.479,1.163,-2.190,-8.762,5.101
2019.07.22 14:07:35.052,-0.177,2.596,3.379,-3.322,-2.667,3.274,9.944,4.874,10.295,8.942,11.397,3.273,6.294,1.800,2.341,-1.960,-3.531,-8.560,4.563
2019.07.22 14:07:35.056,-2.160,5.219,1.531,-1.929,-3.310,3.754,10.077,4.005,10.077,8.249,8.796,2.551,4.349,1.196,0.170,-2.585,-3.418,-7.347,3.398
2019.07.22 14:07:35.060,-3.920,8.043,0.273,0.489,-3.588,3.345,11.054,3.046,10.014,6.821,6.607,0.831,2.837,1.185,-1.261,-2.075,-2.202,-5.582,1.476
2019.07.22 14:07:35.064,-4.865,10.218,-0.181,2.789,-3.437,2.257,11.983,1.827,10.134,5.531,5.171,-1.454,2.223,1.277,-1.089,-2.211,-0.555,-3.949,-0.790
2019.07.22 14:07:35.068,-4.375,11.152,0.154,3.632,-2.551,0.853,12.039,-0.037,10.253,4.864,4.192,-3.557,2.127,0.733,-0.373,-3.920,0.650,-3.027,-2.601
2019.07.22 14:07:35.072,-2.466,10.563,0.913,2.172,-0.810,-0.773,11.056,-2.731,10.137,4.602,3.096,-4.963,1.660,-0.901,-1.191,-6.743,0.601,-3.002,-3.276
2019.07.22 14:07:35.076,-0.065,8.499,1.488,-1.444,1.361,-2.866,9.545,-5.889,9.709,4.049,1.600,-5.688,0.252,-3.428,-4.512,-9.214,-1.050,-3.594,-2.708
2019.07.22 14:07:35.080,1.525,5.419,1.377,-6.065,3.143,-5.623,8.238,-8.680,9.170,2.619,0.020,-6.091,-1.726,-6.046,-8.782,-9.773,-3.860,-4.244,-1.428
2019.07.22 14:07:35.084,1.641,2.278,0.589,-10.053,4.001,-8.697,7.619,-10.323,8.935,0.347,-0.966,-6.398,-3.084,-7.781,-10.671,-7.627,-6.603,-4.444,-0.222
2019.07.22 14:07:35.088,0.915,0.351,-0.244,-12.062,4.280,-11.099,7.812,-10.636,9.434,-2.073,-0.878,-6.418,-2.645,-8.039,-7.643,-3.204,-7.792,-4.020,0.383
2019.07.22 14:07:35.092,0.860,0.705,-0.183,-11.675,5.125,-11.722,8.809,-10.174,10.896,-3.740,0.174,-5.733,-0.143,-6.924,-0.294,1.949,-6.484,-3.215,0.400
2019.07.22 14:07:35.096,2.631,3.556,1.414,-9.505,7.618,-10.129,10.686,-9.827,13.236,-4.141,1.581,-4.205,3.533,-5.103,7.579,5.776,-2.898,-2.513,0.259
2019.07.22 14:07:35.100,5.938,8.012,4.431,-6.714,11.800,-6.945,13.540,-10.171,16.103,-3.416,2.747,-2.290,6.962,-3.306,11.497,6.651,1.631,-2.338,0.443
2019.07.22 14:07:35.104,9.143,12.557,8.026,-4.252,16.461,-3.475,17.200,-11.104,19.056,-2.096,3.561,-0.803,9.202,-1.785,9.593,4.311,5.395,-2.817,1.187
2019.07.22 14:07:35.108,10.575,16.033,11.164,-2.328,20.005,-0.773,21.061,-12.006,21.762,-0.572,4.432,-0.282,10.403,-0.125,4.108,0.284,7.296,-3.747,2.432
2019.07.22 14:07:35.112,10.057,18.429,13.260,-0.466,21.755,1.092,24.293,-12.275,24.103,1.224,5.864,-0.482,11.553,2.414,-0.170,-2.637,7.405,-4.767,3.962
2019.07.22 14:07:35.116,9.321,20.818,14.443,1.903,22.606,2.954,26.321,-11.782,26.127,3.625,7.935,-0.515,13.579,6.224,0.608,-1.806,6.738,-5.593,5.540
2019.07.22 14:07:35.120,10.821,24.367,15.254,4.787,24.346,5.701,27.171,-10.881,27.884,6.694,10.115,0.427,16.519,10.804,6.556,3.625,6.425,-6.146,6.925
2019.07.22 14:07:35.124,15.792,29.185,16.039,7.415,28.093,9.367,27.357,-10.025,29.260,9.829,11.578,2.322,19.412,14.809,14.049,11.895,6.920,-6.498,7.835
2019.07.22 14:07:35.128,23.083,33.910,16.579,8.675,33.110,12.940,27.386,-9.357,29.948,11.965,11.754,4.211,20.968,16.746,18.444,19.367,7.801,-6.714,7.988
2019.07.22 14:07:35.132,29.768,36.505,16.297,7.885,37.055,15.094,27.318,-8.642,29.610,12.278,10.673,4.874,20.466,15.931,17.377,22.520,8.241,-6.749,7.281
2019.07.22 14:07:35.136,33.109,35.698,14.882,5.333,37.617,15.255,26.769,-7.588,28.139,10.864,8.860,3.772,18.199,12.998,12.196,19.996,7.719,-6.484,5.943
2019.07.22 14:07:35.140,32.385,31.992,12.790,2.180,34.315,14.100,25.370,-6.238,25.816,8.782,6.918,1.473,15.158,9.542,6.587,13.309,6.387,-5.870,4.486
2019.07.22 14:07:35.144,29.190,27.414,11.126,-0.221,29.009,13.047,23.245,-5.042,23.240,7.352,5.148,-0.796,12.285,7.063,3.681,5.722,4.846,-5.029,3.416
2019.07.22 14:07:35.148,26.036,24.149,10.884,-1.081,24.646,13.134,21.053,-4.509,20.997,7.204,3.500,-2.118,9.896,5.956,3.917,0.090,3.594,-4.193,2.902
2019.07.22 14:07:35.152,24.436,23.099,12.100,-0.494,23.167,14.193,19.507,-4.704,19.319,7.823,1.826,-2.543,7.697,5.305,5.168,-2.771,2.640,-3.515,2.683
2019.07.22 14:07:35.156,23.985,23.425,13.615,0.844,24.154,14.987,18.773,-5.053,17.955,7.977,0.150,-2.887,5.275,3.714,4.734,-4.062,1.618,-2.919,2.304
2019.07.22 14:07:35.160,23.056,23.399,13.727,2.212,25.281,14.199,18.280,-4.666,16.385,6.686,-1.314,-3.845,2.584,0.544,1.474,-5.508,0.243,-2.126,1.513
2019.07.22 14:07:35.164,20.366,21.807,11.342,3.250,24.139,11.434,17.130,-2.990,14.226,3.954,-2.391,-5.227,0.004,-3.402,-3.563,-7.722,-1.322,-0.876,0.464
2019.07.22 14:07:35.168,16.041,18.778,6.785,3.907,20.014,7.450,14.772,-0.301,11.516,0.656,-3.193,-6.010,-2.025,-6.370,-8.224,-9.780,-2.563,0.810,-0.442
2019.07.22 14:07:35.172,11.321,15.432,1.645,4.098,14.249,3.460,11.380,2.353,8.659,-2.277,-4.108,-5.236,-3.444,-7.000,-10.934,-10.271,-3.107,2.558,-0.937
2019.07.22 14:07:35.176,7.332,12.748,-2.279,3.490,9.039,0.171,7.637,3.758,6.061,-4.666,-5.497,-2.984,-4.645,-5.472,-11.567,-8.811,-3.173,3.800,-1.132
2019.07.22 14:07:35.180,4.096,10.698,-4.171,1.665,5.731,-2.627,4.165,3.262,3.791,-7.143,-7.336,-0.556,-6.125,-3.487,-11.004,-6.604,-3.562,4.100,-1.391
2019.07.22 14:07:35.184,0.739,8.408,-4.661,-1.439,4.038,-5.603,1.148,1.136,1.560,-10.410,-9.106,0.358,-7.994,-3.018,-10.064,-5.528,-5.107,3.391,-1.927
2019.07.22 14:07:35.188,-3.329,5.191,-5.196,-5.224,2.701,-9.021,-1.523,-1.671,-0.901,-14.346,-10.060,-1.081,-9.778,-4.783,-8.921,-6.549,-7.986,1.992,-2.500
2019.07.22 14:07:35.192,-7.379,1.504,-6.804,-8.570,0.890,-12.271,-3.750,-4.157,-3.389,-17.829,-9.695,-4.210,-10.696,-7.685,-7.453,-8.932,-11.404,0.421,-2.531
2019.07.22 14:07:35.196,-9.513,-1.082,-9.188,-10.390,-0.918,-14.240,-4.937,-5.821,-5.133,-19.505,-8.092,-7.363,-10.212,-9.731,-6.016,-11.002,-13.924,-0.852,-1.591
2019.07.22 14:07:35.200,-8.034,-0.962,-10.866,-10.215,-1.352,-14.198,-4.282,-6.772,-5.233,-18.908,-5.882,-9.095,-8.439,-9.728,-5.695,-11.811,-14.245,-1.541,0.139
2019.07.22 14:07:35.204,-2.937,2.207,-10.254,-8.373,0.547,-12.428,-1.503,-7.395,-3.386,-16.969,-3.878,-9.188,-6.138,-8.373,-7.587,-12.155,-11.910,-1.558,1.851
2019.07.22 14:07:35.208,3.704,7.059,-6.901,-5.682,4.287,-10.041,2.637,-7.899,-0.342,-15.389,-2.609,-8.625,-4.309,-7.764,-11.667,-13.895,-7.534,-0.973,2.617
2019.07.22 14:07:35.212,8.882,11.319,-1.948,-2.908,8.051,-8.130,6.538,-8.127,2.339,-15.328,-2.087,-8.635,-3.686,-9.677,-16.290,-18.040,-2.442,0.001,2.043
2019.07.22 14:07:35.216,10.483,13.253,2.535,-0.427,9.884,-6.986,8.675,-7.750,3.155,-16.485,-1.887,-9.622,-4.439,-13.965,-18.945,-23.298,1.977,1.000,0.571
2019.07.22 14:07:35.220,8.445,12.668,4.840,1.717,8.969,-6.033,8.550,-6.670,1.577,-17.381,-1.471,-10.886,-6.204,-18.456,-17.894,-26.575,4.797,1.581,-0.845
2019.07.22 14:07:35.224,4.437,10.753,4.593,3.482,5.995,-4.522,6.923,-5.256,-1.642,-16.646,-0.532,-11.295,-8.332,-20.485,-13.486,-25.288,5.734,1.398,-1.412
2019.07.22 14:07:35.228,0.440,8.980,2.733,4.586,2.417,-2.350,5.126,-4.198,-5.019,-14.288,0.831,-10.304,-10.193,-18.918,-8.140,-19.704,4.996,0.418,-1.019
2019.07.22 14:07:35.232,-2.603,7.998,0.595,4.574,-0.668,-0.299,3.974,-4.058,-7.349,-11.838,2.156,-8.403,-11.393,-15.026,-4.903,-13.263,3.023,-1.010,-0.219
2019.07.22 14:07:35.236,-5.062,7.360,-1.148,3.123,-3.111,0.522,3.121,-4.858,-8.459,-11.207,2.847,-6.645,-11.854,-11.523,-5.527,-10.319,0.285,-2.322,0.274
2019.07.22 14:07:35.240,-7.797,6.173,-2.854,0.313,-5.389,-0.465,1.383,-6.020,-9.139,-13.165,2.480,-5.697,-11.766,-10.511,-9.363,-12.887,-2.782,-3.075,0.128
2019.07.22 14:07:35.244,-11.066,4.008,-5.354,-3.375,-7.833,-2.852,-2.248,-6.731,-10.351,-16.663,1.055,-5.264,-11.407,-11.962,-13.762,-18.913,-5.780,-3.201,-0.438
2019.07.22 14:07:35.248,-14.139,1.302,-8.967,-7.296,-10.179,-5.549,-7.689,-6.465,-12.327,-19.577,-0.927,-4.380,-10.918,-13.918,-15.658,-23.541,-8.340,-2.987,-0.937
2019.07.22 14:07:35.252,-15.853,-1.034,-12.917,-10.887,-11.814,-7.537,-13.653,-5.300,-14.278,-20.237,-2.631,-2.297,-10.140,-14.140,-13.312,-22.545,-10.133,-2.784,-1.042
2019.07.22 14:07:35.256,-15.545,-2.320,-15.662,-13.727,-12.387,-8.410,-18.374,-3.778,-14.919,-18.507,-3.282,0.831,-8.685,-11.833,-7.179,-15.350,-10.874,-2.663,-0.793
2019.07.22 14:07:35.260,-13.508,-2.499,-15.902,-15.432,-12.112,-8.309,-20.622,-2.441,-13.406,-15.568,-2.588,4.056,-6.258,-8.069,0.486,-5.391,-10.344,-2.327,-0.446
2019.07.22 14:07:35.264,-10.640,-1.909,-13.508,-15.601,-11.454,-7.439,-20.266,-1.407,-9.988,-12.705,-0.949,6.418,-3.034,-4.705,6.898,2.405,-8.434,-1.344,-0.175
2019.07.22 14:07:35.268,-7.680,-0.779,-9.679,-13.986,-10.522,-5.739,-18.097,-0.330,-5.891,-10.234,0.744,7.687,0.208,-2.851,10.119,5.022,-5.247,0.449,0.060
2019.07.22 14:07:35.272,-4.757,0.985,-6.206,-10.821,-8.863,-3.090,-15.200,1.190,-2.559,-7.538,1.632,8.407,2.416,-2.219,9.835,3.086,-1.205,2.713,0.373
2019.07.22 14:07:35.276,-1.653,3.475,-4.398,-7.005,-5.954,0.143,-12.405,3.079,-0.832,-4.151,1.428,9.221,2.916,-1.817,7.252,-0.202,2.934,4.711,0.717
2019.07.22 14:07:35.280,1.552,6.269,-4.423,-3.872,-2.026,2.832,-10.144,4.583,-0.620,-0.800,0.597,10.136,1.925,-1.207,4.293,-1.805,6.234,5.701,0.847
2019.07.22 14:07:35.284,4.099,8.321,-5.471,-2.583,1.598,3.539,-8.634,4.628,-1.227,0.683,0.015,10.427,0.511,-1.061,2.555,-0.990,7.878,5.323,0.553
2019.07.22 14:07:35.288,4.876,8.526,-6.495,-3.487,3.131,1.499,-8.026,2.551,-1.982,-1.280,0.344,9.328,-0.072,-2.466,2.569,0.702,7.491,3.718,-0.030
2019.07.22 14:07:35.292,3.222,6.574,-6.932,-5.914,1.544,-2.620,-8.335,-1.307,-2.649,-6.471,1.572,6.901,0.773,-5.622,3.717,1.307,5.312,1.365,-0.376
2019.07.22 14:07:35.296,-0.446,3.367,-6.891,-8.573,-2.533,-6.888,-9.249,-5.619,-3.380,-12.530,3.072,4.304,2.606,-9.207,4.827,0.322,2.124,-1.213,0.121
2019.07.22 14:07:35.300,-4.732,0.548,-6.779,-10.293,-7.033,-9.228,-10.118,-8.749,-4.322,-16.285,4.153,3.124,4.346,-11.133,5.088,-0.974,-1.020,-3.621,1.682
2019.07.22 14:07:35.304,-8.003,-0.554,-6.778,-10.619,-9.684,-8.726,-10.228,-9.667,-5.288,-15.855,4.668,4.261,5.185,-10.133,4.708,-0.868,-3.160,-5.580,3.921
2019.07.22 14:07:35.308,-9.215,0.256,-6.603,-9.848,-9.353,-6.133,-9.216,-8.459,-5.756,-11.894,5.178,7.250,5.285,-6.824,4.836,1.142,-3.705,-6.848,6.076
2019.07.22 14:07:35.312,-8.241,2.111,-5.709,-8.575,-6.493,-3.173,-7.270,-6.108,-5.185,-6.953,6.501,10.572,5.677,-3.274,6.728,3.901,-2.547,-7.221,7.520
2019.07.22 14:07:35.316,-5.574,3.978,-3.691,-7.122,-2.441,-1.192,-4.950,-3.724,-3.361,-3.463,8.970,12.707,7.403,-1.382,10.681,5.683,-0.001,-6.664,8.143
2019.07.22 14:07:35.320,-1.834,5.572,-0.559,-5.343,1.744,-0.222,-2.788,-1.822,-0.537,-1.969,11.986,13.101,10.543,-1.432,15.482,5.735,3.352,-5.429,8.302
2019.07.22 14:07:35.324,2.464,7.472,3.298,-2.931,5.877,0.798,-0.998,-0.176,2.690,-1.045,14.269,12.313,13.924,-2.092,18.871,4.863,6.840,-4.018,8.401
2019.07.22 14:07:35.328,6.741,10.315,7.306,0.053,10.211,2.844,0.467,1.685,5.622,1.080,14.680,11.315,15.807,-1.838,18.832,4.582,9.830,-2.941,8.474
2019.07.22 14:07:35.332,10.140,13.801,10.859,2.926,14.472,5.670,1.637,3.814,7.650,4.614,13.030,10.587,15.049,-0.560,14.926,5.657,11.800,-2.456,8.157
2019.07.22 14:07:35.336,11.694,16.488,13.341,4.685,17.394,7.742,2.322,5.617,8.349,7.714,10.253,9.787,11.902,0.130,8.752,7.390,12.387,-2.466,7.055
2019.07.22 14:07:35.340,10.921,16.725,14.161,4.720,17.354,7.374,2.217,6.284,7.559,7.929,7.795,8.214,7.824,-1.767,3.152,8.253,11.457,-2.666,5.182
2019.07.22 14:07:35.344,8.381,14.059,12.962,3.416,13.726,4.220,1.224,5.535,5.488,4.440,6.642,5.603,4.493,-6.745,0.601,7.234,9.191,-2.798,3.085
2019.07.22 14:07:35.348,5.622,9.931,9.954,2.143,7.810,-0.111,-0.329,4.029,2.761,-0.807,6.693,2.534,2.753,-12.992,1.764,4.671,6.147,-2.798,1.505
2019.07.22 14:07:35.352,4.334,6.923,6.106,2.544,2.425,-2.924,-1.775,3.016,0.289,-4.153,6.941,0.076,2.284,-17.468,5.160,1.840,3.198,-2.724,0.876
2019.07.22 14:07:35.356,5.227,6.970,2.897,5.524,0.262,-2.260,-2.468,3.439,-1.089,-2.795,6.312,-1.009,2.145,-18.056,8.133,-0.204,1.296,-2.572,1.036
2019.07.22 14:07:35.360,7.465,9.853,1.640,10.599,2.163,1.662,-2.092,5.178,-1.011,3.109,4.531,-0.837,1.683,-15.086,8.516,-1.416,1.120,-2.171,1.403
2019.07.22 14:07:35.364,9.164,13.199,2.768,16.065,6.615,6.475,-0.686,7.076,0.225,10.452,2.352,-0.261,1.030,-10.996,5.915,-2.461,2.763,-1.303,1.432
2019.07.22 14:07:35.368,8.690,14.106,5.589,19.925,10.877,9.226,1.565,7.805,1.882,15.363,0.986,-0.164,0.841,-8.432,1.824,-3.694,5.655,0.062,0.986
2019.07.22 14:07:35.372,5.839,11.255,8.715,21.013,12.906,8.392,4.500,6.930,3.258,15.910,1.181,-0.775,1.565,-8.334,-1.458,-4.521,8.816,1.624,0.344
2019.07.22 14:07:35.376,2.027,5.935,10.895,19.622,12.635,4.918,7.915,5.346,4.098,13.281,2.624,-1.551,2.907,-9.508,-2.368,-3.860,11.306,2.868,-0.117
2019.07.22 14:07:35.380,-0.672,1.195,11.671,17.267,11.677,1.565,11.340,4.698,4.637,10.630,4.141,-1.679,3.975,-9.913,-1.038,-1.350,12.630,3.385,-0.243
2019.07.22 14:07:35.384,-0.967,-0.273,11.422,15.748,11.797,1.058,14.012,6.191,5.270,10.584,4.525,-0.757,3.987,-8.475,0.936,1.889,12.864,3.141,-0.182
2019.07.22 14:07:35.388,0.803,2.045,10.873,16.145,13.417,4.345,15.250,9.683,6.156,13.397,3.404,0.906,2.952,-5.889,1.738,3.807,12.459,2.493,-0.174
2019.07.22 14:07:35.392,3.003,6.271,10.521,18.358,15.384,10.141,15.033,13.756,7.113,17.110,1.514,2.562,1.763,-3.825,0.697,3.001,11.914,1.941,-0.300
2019.07.22 14:07:35.396,3.967,9.606,10.468,21.421,16.118,15.935,14.282,16.714,7.887,19.421,0.211,3.595,1.632,-3.335,-1.190,0.027,11.541,1.801,-0.423
2019.07.22 14:07:35.400,3.218,10.307,10.694,24.291,15.152,19.648,14.431,17.756,8.536,19.638,0.581,3.920,3.281,-3.883,-1.970,-2.722,11.478,2.057,-0.346
2019.07.22 14:07:35.404,1.769,8.692,11.417,26.531,13.732,20.725,16.434,17.435,9.540,19.100,2.774,3.942,6.490,-3.844,-0.203,-2.605,11.843,2.470,-0.020
2019.07.22 14:07:35.408,1.270,6.518,13.066,28.413,13.916,20.033,19.906,17.096,11.448,19.822,5.970,4.168,10.266,-1.977,3.870,1.440,12.816,2.807,0.417
2019.07.22 14:07:35.412,2.670,5.359,15.828,30.450,16.869,18.844,23.111,17.748,14.310,22.568,8.934,4.829,13.431,1.398,8.328,8.219,14.525,3.008,0.786
2019.07.22 14:07:35.416,5.374,5.344,19.149,32.752,21.711,17.804,23.978,19.276,17.354,25.996,10.717,5.749,15.172,4.531,10.783,15.188,16.808,3.153,1.049
2019.07.22 14:07:35.420,7.524,5.201,21.748,34.734,25.906,16.644,21.480,20.539,19.253,27.580,11.038,6.497,15.220,5.518,9.952,20.059,19.088,3.329,1.317
2019.07.22 14:07:35.424,7.195,3.466,22.294,35.385,26.936,14.710,16.385,20.253,18.864,25.544,10.174,6.613,13.671,3.660,6.424,21.778,20.540,3.527,1.666
2019.07.22 14:07:35.428,3.679,-0.227,20.328,33.899,24.015,11.698,10.765,17.914,15.934,20.234,8.568,5.767,10.753,-0.180,2.061,20.317,20.492,3.670,1.956
2019.07.22 14:07:35.432,-2.023,-4.832,16.688,30.197,18.549,7.950,6.594,14.079,11.285,13.856,6.515,3.833,6.767,-4.384,-1.483,15.878,18.813,3.711,1.851
2019.07.22 14:07:35.436,-7.798,-8.762,13.047,24.984,13.015,4.098,4.447,9.872,6.331,8.856,4.149,0.960,2.214,-7.775,-3.922,8.600,15.991,3.671,1.072
2019.07.22 14:07:35.440,-11.671,-11.142,10.827,19.350,9.163,0.501,3.273,6.209,2.302,6.273,1.662,-2.353,-2.104,-10.199,-6.212,-0.786,12.861,3.588,-0.321
2019.07.22 14:07:35.444,-12.894,-12.385,10.263,14.261,6.922,-2.956,1.398,3.372,-0.279,5.340,-0.513,-5.291,-5.221,-12.140,-9.240,-10.133,10.162,3.433,-1.875
2019.07.22 14:07:35.448,-12.215,-13.635,10.339,10.278,4.812,-6.482,-2.042,1.229,-1.570,4.523,-1.786,-6.965,-6.374,-13.867,-12.463,-16.093,8.233,3.112,-2.998
2019.07.22 14:07:35.452,-11.272,-15.603,9.603,7.629,1.432,-9.799,-6.342,-0.235,-1.968,3.033,-1.730,-6.820,-5.374,-14.966,-13.811,-15.800,7.007,2.583,-3.332
2019.07.22 14:07:35.456,-11.588,-17.833,7.249,6.397,-3.225,-11.993,-9.724,-0.651,-1.720,1.495,-0.410,-4.938,-2.740,-14.625,-11.163,-8.976,6.221,1.965,-2.953
2019.07.22 14:07:35.460,-13.799,-19.059,3.653,6.560,-7.706,-12.076,-10.686,0.434,-0.899,1.276,1.576,-2.010,0.513,-12.375,-4.346,1.299,5.628,1.506,-2.229
2019.07.22 14:07:35.464,-17.494,-18.353,0.010,7.812,-10.298,-9.908,-9.152,2.937,0.306,3.089,3.393,1.070,3.322,-8.579,4.048,10.131,5.066,1.400,-1.489
2019.07.22 14:07:35.468,-21.595,-16.096,-2.545,9.392,-10.451,-6.666,-6.541,5.903,1.378,6.109,4.435,3.693,5.024,-4.264,9.955,13.822,4.422,1.593,-0.776
2019.07.22 14:07:35.472,-24.925,-13.886,-3.591,10.240,-9.201,-4.345,-4.724,7.875,1.673,8.390,4.655,5.762,5.600,-0.508,10.538,12.165,3.632,1.776,0.085
2019.07.22 14:07:35.476,-26.599,-13.394,-3.392,9.534,-8.203,-4.477,-4.667,7.795,0.953,8.280,4.537,7.475,5.631,2.090,6.323,8.264,2.803,1.607,1.187
2019.07.22 14:07:35.480,-26.156,-15.047,-2.310,7.300,-8.150,-6.987,-5.766,5.780,-0.179,5.709,4.761,8.895,6.002,3.493,1.027,5.964,2.312,1.002,2.304
2019.07.22 14:07:35.484,-23.531,-17.590,-0.291,4.587,-7.961,-10.068,-6.328,3.137,-0.419,2.317,5.794,9.699,7.473,3.961,-0.990,6.914,2.725,0.221,2.948
2019.07.22 14:07:35.488,-19.023,-18.942,3.077,2.958,-5.504,-11.299,-4.815,1.529,1.469,0.318,7.683,9.360,10.291,3.816,2.161,9.560,4.452,-0.337,2.721
2019.07.22 14:07:35.492,-13.299,-17.712,7.970,3.536,0.574,-9.272,-0.935,1.862,5.746,0.965,10.129,7.655,14.032,3.439,8.557,10.772,7.356,-0.493,1.674
2019.07.22 14:07:35.496,-7.325,-14.232,13.745,6.240,9.346,-4.576,4.151,3.721,11.303,3.773,12.757,5.047,17.771,3.334,13.961,8.670,10.618,-0.474,0.361
2019.07.22 14:07:35.500,-2.125,-10.345,18.921,9.783,17.696,0.593,8.568,5.753,16.171,7.022,15.308,2.592,20.529,4.003,15.044,4.272,13.071,-0.756,-0.482
2019.07.22 14:07:35.504,1.560,-8.108,21.846,12.448,22.092,3.897,10.837,6.702,18.611,9.083,17.660,1.374,21.754,5.550,11.843,0.632,13.821,-1.663,-0.424
2019.07.22 14:07:35.508,3.527,-8.408,21.576,13.131,20.833,4.353,10.614,6.311,18.082,9.512,19.665,1.846,21.533,7.388,7.546,0.275,12.739,-3.050,0.380
2019.07.22 14:07:35.512,4.050,-10.518,18.346,11.906,15.097,2.775,8.672,5.401,15.412,9.104,21.025,3.557,20.396,8.411,5.791,3.122,10.456,-4.368,1.299
2019.07.22 14:07:35.516,3.518,-12.853,13.333,9.726,8.034,0.908,6.266,5.103,12.099,8.968,21.347,5.433,18.844,7.660,7.645,6.572,7.861,-5.054,1.643
2019.07.22 14:07:35.520,2.026,-14.276,7.928,7.563,2.560,-0.034,4.392,5.851,9.302,9.405,20.392,6.389,16.976,4.978,10.682,7.577,5.479,-4.953,1.075
2019.07.22 14:07:35.524,-0.765,-14.935,3.080,5.651,-0.488,-0.287,3.385,6.940,7.240,9.532,18.336,5.836,14.524,1.084,10.897,4.855,3.206,-4.396,-0.251
2019.07.22 14:07:35.528,-5.327,-16.003,-0.916,3.424,-2.501,-1.256,3.000,6.991,5.392,7.923,15.814,3.810,11.278,-3.056,5.961,-0.529,0.589,-3.892,-1.871
2019.07.22 14:07:35.532,-11.710,-18.616,-4.195,0.154,-5.557,-4.306,2.786,4.993,3.230,3.790,13.654,0.771,7.536,-7.031,-2.778,-6.466,-2.604,-3.688,-3.330
2019.07.22 14:07:35.536,-19.153,-22.867,-6.980,-4.257,-10.483,-9.593,2.454,1.109,0.822,-2.220,12.438,-2.660,4.154,-11.201,-11.113,-11.591,-6.006,-3.582,-4.402
2019.07.22 14:07:35.540,-26.200,-27.644,-9.426,-8.981,-16.088,-15.821,2.021,-3.330,-1.178,-8.212,12.162,-5.820,2.053,-16.073,-14.965,-15.883,-8.778,-3.154,-5.102
2019.07.22 14:07:35.544,-31.330,-31.403,-11.634,-12.701,-20.111,-21.050,1.723,-6.672,-2.110,-12.107,12.237,-8.027,1.529,-21.364,-13.238,-19.698,-10.130,-2.192,-5.547
2019.07.22 14:07:35.548,-33.698,-33.206,-13.661,-14.420,-21.051,-23.891,1.797,-7.983,-1.927,-12.832,11.849,-8.682,1.921,-25.699,-8.401,-22.429,-9.814,-0.926,-5.836
2019.07.22 14:07:35.552,-33.487,-33.215,-15.386,-14.006,-19.317,-24.165,2.309,-7.543,-1.271,-10.841,10.458,-7.540,1.987,-27.366,-4.476,-22.366,-8.201,0.138,-6.030
2019.07.22 14:07:35.556,-31.616,-32.293,-16.348,-12.085,-16.778,-22.640,3.103,-6.467,-0.924,-7.644,8.110,-4.973,0.788,-25.663,-4.104,-18.139,-5.915,0.674,-6.207
2019.07.22 14:07:35.560,-29.008,-31.096,-15.821,-9.408,-15.113,-20.163,3.888,-5.757,-1.061,-4.735,5.382,-1.938,-1.560,-21.663,-6.892,-10.453,-3.356,0.849,-6.492
2019.07.22 14:07:35.564,-25.980,-29.432,-13.221,-6.261,-14.382,-16.986,4.386,-5.529,-0.967,-2.660,3.014,0.481,-3.848,-17.634,-10.123,-2.338,-0.509,1.227,-7.008
2019.07.22 14:07:35.568,-22.192,-26.405,-8.626,-2.391,-13.046,-12.795,4.446,-4.958,0.507,-0.848,1.491,1.714,-4.545,-15.414,-11.027,2.669,2.841,2.301,-7.779
2019.07.22 14:07:35.572,-17.190,-21.241,-2.977,2.520,-9.409,-7.332,4.066,-2.977,4.054,1.767,0.847,2.061,-2.838,-15.016,-8.754,3.065,6.725,4.042,-8.668
2019.07.22 14:07:35.576,-11.087,-14.086,2.300,8.283,-3.270,-0.987,3.316,0.812,9.258,5.797,0.781,2.445,0.799,-14.671,-4.650,0.481,10.797,5.844,-9.431
2019.07.22 14:07:35.580,-4.814,-6.157,6.068,14.046,3.659,5.206,2.251,5.694,14.718,10.814,0.959,3.685,4.898,-12.381,-0.925,-1.760,14.506,6.925,-9.840
2019.07.22 14:07:35.584,0.325,0.896,8.103,18.721,8.933,10.175,0.885,10.177,18.865,15.506,1.250,5.818,7.925,-7.771,1.035,-1.505,17.457,6.859,-9.819
2019.07.22 14:07:35.588,3.454,5.907,9.098,21.652,11.201,13.514,-0.744,12.889,20.902,18.441,1.744,8.003,9.150,-2.686,1.389,0.424,19.643,5.836,-9.482
2019.07.22 14:07:35.592,4.679,8.690,10.028,22.991,11.113,15.653,-2.498,13.383,21.160,18.929,2.573,9.132,8.876,0.078,1.270,1.145,21.336,4.465,-9.066
2019.07.22 14:07:35.596,4.912,9.785,11.361,23.468,10.548,17.362,-4.131,12.323,20.674,17.405,3.706,8.687,7.966,-1.016,1.644,-1.324,22.750,3.305,-8.784
2019.07.22 14:07:35.600,5.088,9.751,12.735,23.756,10.831,19.009,-5.409,10.954,20.342,15.119,4.906,7.190,7.112,-4.874,2.595,-5.678,23.810,2.526,-8.694
2019.07.22 14:07:35.604,5.398,8.664,13.358,23.949,11.510,20.208,-6.255,10.246,20.338,13.350,5.866,5.864,6.421,-8.417,3.461,-7.841,24.245,1.920,-8.650
2019.07.22 14:07:35.608,5.213,6.270,12.805,23.566,10.840,20.187,-6.796,10.309,20.199,12.676,6.401,5.738,5.554,-8.847,3.476,-4.299,23.923,1.216,-8.372
2019.07.22 14:07:35.612,3.791,2.643,11.554,22.068,7.612,18.556,-7.227,10.440,19.419,12.735,6.548,6.857,4.196,-5.816,2.268,4.410,23.126,0.363,-7.603
2019.07.22 14:07:35.616,1.211,-1.313,10.816,19.424,2.756,15.830,-7.593,9.709,18.005,12.594,6.491,8.218,2.399,-1.787,-0.099,13.162,22.465,-0.437,-6.283
2019.07.22 14:07:35.620,-1.322,-4.109,11.714,16.247,-0.839,13.210,-7.692,7.647,16.485,11.433,6.388,8.464,0.540,-0.268,-3.328,15.546,22.454,-0.949,-4.632
2019.07.22 14:07:35.624,-2.237,-4.646,14.411,13.369,-0.409,11.750,-7.240,4.567,15.357,9.086,6.252,6.865,-1.029,-3.215,-6.982,8.716,23.059,-1.129,-3.086
2019.07.22 14:07:35.628,-0.958,-3.223,17.796,11.203,4.235,11.561,-6.221,1.353,14.489,6.119,5.964,3.846,-2.275,-9.570,-10.402,-4.019,23.587,-1.142,-2.095
2019.07.22 14:07:35.632,1.182,-1.711,19.992,9.430,9.911,11.689,-5.142,-1.071,13.008,3.420,5.377,0.715,-3.483,-15.973,-12.696,-15.085,23.052,-1.157,-1.903
2019.07.22 14:07:35.636,1.373,-2.556,19.341,7.294,11.813,10.821,-4.927,-2.224,9.868,1.643,4.426,-1.193,-4.968,-19.085,-13.077,-17.824,20.795,-1.140,-2.435
2019.07.22 14:07:35.640,-2.943,-7.183,15.283,4.291,6.721,8.287,-6.415,-2.197,4.684,0.855,3.145,-1.331,-6.775,-17.767,-11.392,-11.081,16.916,-0.852,-3.371
2019.07.22 14:07:35.644,-12.166,-14.929,8.609,0.694,-4.644,4.602,-9.783,-1.435,-1.810,0.620,1.608,-0.161,-8.613,-13.593,-8.389,0.236,12.258,-0.076,-4.363
2019.07.22 14:07:35.648,-23.870,-23.333,1.025,-2.525,-17.884,1.118,-14.283,-0.401,-8.084,0.396,-0.106,1.305,-10.041,-9.486,-5.366,8.986,7.936,1.118,-5.225
2019.07.22 14:07:35.652,-34.036,-29.689,-5.654,-4.356,-27.705,-0.936,-18.541,0.638,-12.704,-0.032,-1.876,2.245,-10.733,-7.602,-3.367,10.966,4.760,2.332,-5.982
2019.07.22 14:07:35.656,-39.489,-32.763,-10.212,-4.474,-31.212,-1.295,-21.239,1.592,-15.157,-0.393,-3.462,2.507,-10.621,-8.040,-2.549,7.458,2.904,3.051,-6.738
2019.07.22 14:07:35.660,-39.872,-33.434,-12.323,-3.477,-29.400,-0.736,-21.737,2.413,-16.001,-0.111,-4.494,2.525,-9.833,-9.130,-2.235,3.401,1.998,2.982,-7.514
2019.07.22 14:07:35.664,-37.710,-33.765,-12.381,-2.408,-25.890,-0.333,-20.255,3.030,-16.263,1.315,-4.587,2.843,-8.540,-8.879,-1.582,2.961,1.525,2.244,-8.174
2019.07.22 14:07:35.668,-36.463,-35.195,-11.065,-1.944,-24.027,-0.506,-17.537,3.406,-16.562,3.998,-3.539,3.656,-6.838,-6.370,-0.241,6.233,1.227,1.285,-8.509
2019.07.22 14:07:35.672,-37.932,-37.261,-8.939,-1.873,-24.568,-0.610,-14.336,3.672,-16.645,7.598,-1.471,4.738,-4.735,-2.162,1.579,9.666,1.260,0.588,-8.391
2019.07.22 14:07:35.676,-40.938,-37.869,-6.262,-1.289,-25.584,0.582,-11.095,4.158,-15.672,11.493,1.203,5.764,-2.203,2.397,3.665,9.630,2.021,0.401,-7.839
2019.07.22 14:07:35.680,-42.277,-34.958,-3.094,0.643,-24.428,3.854,-8.003,5.257,-13.018,15.056,3.977,6.731,0.750,6.249,6.314,5.935,3.797,0.641,-6.953
2019.07.22 14:07:35.684,-39.283,-28.297,0.474,3.940,-20.051,8.772,-5.240,7.184,-8.962,17.845,6.466,8.083,3.990,9.236,10.191,2.264,6.474,1.006,-5.784
2019.07.22 14:07:35.688,-32.048,-19.978,4.128,7.681,-13.885,13.769,-3.092,9.800,-4.727,19.649,8.496,10.408,7.167,11.906,15.517,3.149,9.508,1.182,-4.304
2019.07.22 14:07:35.692,-23.597,-13.154,7.370,10.630,-8.717,17.070,-1.771,12.645,-1.824,20.429,10.022,13.899,9.678,14.812,21.335,10.012,12.181,1.014,-2.535
2019.07.22 14:07:35.696,-17.805,-9.915,9.763,12.119,-6.598,17.808,-1.107,15.158,-1.150,20.257,10.990,17.970,10.813,17.912,25.682,19.616,13.985,0.570,-0.719
2019.07.22 14:07:35.700,-16.569,-9.891,11.205,12.510,-7.447,16.537,-0.463,16.924,-2.461,19.316,11.300,21.359,10.111,20.521,26.764,26.238,14.888,0.098,0.665
2019.07.22 14:07:35.704,-18.388,-10.650,12.001,12.855,-9.324,14.791,0.951,17.795,-4.545,17.912,10.919,22.694,7.768,21.777,24.306,25.881,15.299,-0.085,1.128
2019.07.22 14:07:35.708,-19.458,-9.603,12.621,14.005,-9.991,14.013,3.511,17.824,-5.945,16.437,10.027,21.218,4.772,21.252,19.934,19.200,15.740,0.244,0.537
2019.07.22 14:07:35.712,-16.558,-5.964,13.297,15.870,-8.465,14.632,6.788,17.118,-5.778,15.236,9.039,17.217,2.523,19.274,16.155,10.898,16.438,1.070,-0.685
2019.07.22 14:07:35.716,-9.598,-1.324,13.774,17.402,-5.469,15.877,9.668,15.748,-4.161,14.425,8.413,11.884,2.037,16.760,14.645,6.178,17.133,2.084,-1.732
2019.07.22 14:07:35.720,-1.954,1.564,13.439,17.328,-2.691,16.395,10.951,13.787,-2.097,13.781,8.363,6.711,3.223,14.663,15.169,7.059,17.232,2.806,-1.886
2019.07.22 14:07:35.724,1.706,0.781,11.776,15.058,-1.609,15.142,10.037,11.408,-0.929,12.797,8.703,2.765,4.774,13.380,15.965,11.308,16.225,2.857,-0.988
2019.07.22 14:07:35.728,-1.435,-3.508,8.797,11.071,-2.823,11.914,7.218,8.904,-1.706,10.903,8.968,0.286,4.889,12.475,15.212,14.544,14.046,2.217,0.466
2019.07.22 14:07:35.732,-10.459,-9.422,5.104,6.496,-6.153,7.234,3.431,6.567,-4.717,7.771,8.742,-1.200,2.398,10.926,12.347,13.611,11.109,1.280,1.659
2019.07.22 14:07:35.736,-21.344,-14.917,1.500,2.258,-11.095,1.837,-0.327,4.490,-9.361,3.508,7.941,-2.401,-2.450,7.793,8.147,8.560,7.999,0.616,1.986
2019.07.22 14:07:35.740,-29.587,-19.191,-1.535,-1.484,-17.056,-3.758,-3.465,2.484,-14.368,-1.334,6.820,-3.742,-8.123,2.922,3.678,1.963,5.070,0.583,1.375
2019.07.22 14:07:35.744,-32.908,-22.834,-4.070,-5.169,-23.234,-9.244,-5.889,0.208,-18.305,-5.968,5.704,-5.170,-12.785,-2.761,-0.841,-3.520,2.294,1.073,0.195
2019.07.22 14:07:35.748,-32.241,-26.744,-6.475,-9.090,-28.488,-14.224,-7.749,-2.521,-20.174,-9.675,4.673,-6.341,-15.427,-7.649,-6.105,-7.135,-0.503,1.614,-1.134
2019.07.22 14:07:35.752,-30.523,-30.850,-8.907,-12.748,-31.637,-17.999,-9.165,-5.461,-19.862,-12.056,3.476,-6.990,-16.337,-10.337,-12.647,-10.079,-3.227,1.752,-2.470
2019.07.22 14:07:35.756,-30.359,-33.815,-11.020,-14.914,-32.111,-19.755,-10.151,-7.935,-18.170,-13.108,1.768,-7.193,-16.605,-10.475,-19.653,-13.870,-5.324,1.419,-3.945
2019.07.22 14:07:35.760,-32.295,-33.991,-12.183,-14.433,-30.449,-19.069,-10.745,-9.153,-16.353,-13.124,-0.514,-7.334,-17.118,-8.975,-24.918,-18.676,-6.028,0.990,-5.679
2019.07.22 14:07:35.764,-34.776,-30.818,-12.044,-11.152,-28.055,-16.299,-11.117,-8.663,-15.381,-12.483,-2.971,-7.836,-17.846,-7.396,-26.227,-23.079,-4.929,0.950,-7.505
2019.07.22 14:07:35.768,-35.583,-25.462,-10.928,-6.242,-26.272,-12.499,-11.496,-6.640,-15.346,-11.454,-4.920,-8.886,-17.963,-6.913,-23.138,-25.342,-2.405,1.473,-9.001
2019.07.22 14:07:35.772,-33.549,-20.148,-9.683,-1.606,-25.433,-8.838,-11.933,-3.799,-15.430,-10.103,-5.816,-10.341,-16.646,-7.573,-17.633,-24.939,0.470,2.247,-9.799
2019.07.22 14:07:35.776,-29.359,-16.722,-9.053,1.222,-24.678,-5.965,-12.154,-0.970,-14.474,-8.329,-5.583,-11.830,-13.837,-8.377,-12.960,-22.956,2.518,2.724,-9.898
2019.07.22 14:07:35.780,-25.001,-15.582,-9.089,1.894,-22.757,-3.791,-11.701,1.376,-11.805,-5.975,-4.593,-12.924,-10.333,-8.099,-11.432,-21.072,3.167,2.577,-9.663
2019.07.22 14:07:35.784,-22.444,-15.781,-9.131,1.221,-19.183,-1.828,-10.285,3.331,-7.739,-2.964,-3.328,-13.230,-7.145,-6.213,-12.878,-20.089,2.738,1.981,-9.482
2019.07.22 14:07:35.788,-22.472,-16.052,-8.381,0.438,-14.785,0.230,-8.092,5.338,-3.414,0.608,-2.005,-12.424,-4.712,-3.234,-14.957,-19.336,2.121,1.478,-9.382
2019.07.22 14:07:35.792,-24.368,-15.827,-6.594,0.361,-11.169,2.195,-5.742,7.726,-0.061,4.423,-0.510,-10.305,-2.651,-0.269,-15.074,-17.445,2.121,1.529,-8.968
2019.07.22 14:07:35.796,-26.480,-15.406,-4.289,1.085,-9.521,3.575,-3.898,10.316,1.752,7.964,1.334,-6.954,-0.266,1.806,-12.380,-13.760,2.956,2.148,-7.789
2019.07.22 14:07:35.800,-27.232,-15.314,-2.325,2.286,-9.749,4.050,-2.812,12.404,2.345,10.589,3.399,-2.911,2.631,2.855,-8.322,-9.137,4.251,2.922,-5.833
2019.07.22 14:07:35.804,-25.975,-15.587,-1.248,3.702,-10.702,3.732,-2.183,13.126,2.503,11.677,5.162,0.850,5.336,3.315,-5.389,-5.414,5.410,3.366,-3.695
2019.07.22 14:07:35.808,-23.308,-15.748,-1.045,5.266,-11.278,2.949,-1.454,11.975,2.764,10.833,6.017,3.280,6.684,3.601,-5.136,-4.001,5.987,3.304,-2.231
2019.07.22 14:07:35.812,-20.737,-15.481,-1.516,6.781,-11.443,1.750,-0.318,9.129,3.015,8.091,5.763,3.832,5.993,3.687,-7.044,-4.756,5.753,2.916,-1.903
2019.07.22 14:07:35.816,-19.870,-15.262,-2.839,7.564,-12.246,-0.334,0.972,5.367,2.701,4.015,4.864,2.897,3.751,3.288,-8.989,-6.024,4.522,2.435,-2.367
2019.07.22 14:07:35.820,-21.492,-16.171,-5.644,6.590,-14.749,-3.916,1.761,1.684,1.451,-0.395,4.204,1.715,1.443,2.458,-8.832,-5.756,2.072,1.826,-2.659
2019.07.22 14:07:35.824,-25.004,-18.909,-10.343,3.223,-18.788,-8.999,1.489,-1.165,-0.430,-4.013,4.488,1.709,0.589,1.986,-5.836,-2.809,-1.634,0.771,-1.902
2019.07.22 14:07:35.828,-28.614,-22.861,-16.224,-1.997,-22.686,-14.505,0.155,-2.881,-2.054,-6.015,5.706,3.596,1.693,3.073,-0.959,2.462,-6.068,-0.958,0.011
2019.07.22 14:07:35.832,-30.305,-26.164,-21.237,-7.265,-24.298,-18.647,-1.646,-3.567,-2.584,-6.218,7.101,6.857,3.894,6.404,3.980,8.571,-10.038,-3.093,2.279
2019.07.22 14:07:35.836,-29.074,-26.962,-22.973,-10.403,-22.635,-20.043,-3.117,-3.491,-1.888,-5.150,7.671,9.964,5.586,11.316,7.447,13.713,-12.178,-4.832,3.729
2019.07.22 14:07:35.840,-25.657,-24.894,-20.311,-10.239,-18.756,-18.769,-3.792,-2.907,-0.671,-3.762,6.845,11.266,5.538,15.829,8.841,16.439,-11.802,-5.308,3.623
2019.07.22 14:07:35.844,-22.139,-21.545,-14.498,-7.458,-15.129,-16.451,-3.790,-2.009,0.071,-2.921,4.838,9.986,3.703,17.704,8.433,15.948,-9.517,-4.231,2.137
2019.07.22 14:07:35.848,-20.588,-19.329,-8.645,-4.211,-13.866,-15.183,-3.615,-0.988,-0.158,-2.939,2.447,6.694,1.149,15.883,6.935,12.248,-6.998,-2.189,0.170
2019.07.22 14:07:35.852,-21.581,-19.581,-5.800,-2.669,-15.167,-15.975,-3.690,-0.023,-0.942,-3.414,0.468,2.971,-0.783,11.315,5.164,6.358,-5.956,-0.315,-1.306
2019.07.22 14:07:35.856,-23.706,-21.376,-6.924,-3.524,-17.194,-17.913,-4.021,0.810,-1.272,-3.483,-0.793,0.495,-1.418,6.513,3.874,0.376,-6.986,0.448,-1.858
2019.07.22 14:07:35.860,-24.498,-22.104,-10.295,-5.539,-17.485,-18.758,-4.220,1.657,-0.370,-2.357,-1.573,0.155,-1.128,4.090,3.597,-3.089,-9.164,-0.056,-1.705
2019.07.22 14:07:35.864,-22.204,-19.435,-12.836,-6.472,-14.821,-16.603,-3.866,2.840,1.655,0.173,-2.274,1.690,-0.915,5.212,4.389,-2.213,-10.717,-1.201,-1.350
2019.07.22 14:07:35.868,-17.129,-13.144,-12.366,-4.699,-10.088,-11.376,-2.874,4.617,3.830,3.567,-3.013,4.004,-1.571,8.972,5.687,2.657,-10.321,-2.146,-1.083
2019.07.22 14:07:35.872,-11.515,-5.357,-9.062,-0.340,-5.520,-5.032,-1.576,6.872,5.029,6.795,-3.484,5.868,-3.071,13.070,6.583,8.667,-8.025,-2.480,-0.789
2019.07.22 14:07:35.876,-8.009,0.973,-5.052,4.886,-2.940,-0.270,-0.465,9.015,4.832,8.889,-3.229,6.557,-4.584,15.282,6.473,11.865,-5.127,-2.441,-0.166
2019.07.22 14:07:35.880,-7.817,4.139,-2.560,8.888,-2.417,1.280,0.171,10.233,3.869,9.428,-2.076,6.102,-5.071,14.789,5.621,9.775,-3.137,-2.575,0.916
2019.07.22 14:07:35.884,-9.902,4.650,-2.170,10.546,-2.353,0.038,0.446,9.987,3.380,8.694,-0.350,5.113,-3.981,12.525,5.056,3.441,-2.668,-3.187,2.246
2019.07.22 14:07:35.888,-11.798,4.424,-2.627,10.202,-0.870,-2.054,0.757,8.418,4.348,7.409,1.310,4.340,-1.582,10.430,5.751,-2.754,-3.111,-4.055,3.447
2019.07.22 14:07:35.892,-11.394,4.974,-2.209,9.078,2.663,-3.092,1.475,6.322,6.826,6.255,2.402,4.229,1.257,10.140,7.695,-3.747,-3.305,-4.638,4.301
2019.07.22 14:07:35.896,-8.350,6.151,-0.401,8.211,7.177,-2.558,2.697,4.668,9.955,5.495,2.884,4.666,3.608,11.952,9.678,2.671,-2.569,-4.545,4.886
2019.07.22 14:07:35.900,-4.158,6.466,1.631,7.782,10.814,-1.473,4.228,3.957,12.576,4.922,3.141,4.993,4.968,14.655,10.111,13.930,-1.245,-3.839,5.419
2019.07.22 14:07:35.904,-0.919,4.599,2.197,7.277,12.391,-1.349,5.752,3.900,13.968,4.134,3.613,4.330,5.382,16.293,8.279,23.942,-0.322,-2.915,5.949
2019.07.22 14:07:35.908,0.143,0.750,0.790,6.189,12.226,-2.903,7.036,3.669,14.159,2.910,4.406,2.073,5.210,15.351,4.975,26.873,-0.526,-2.125,6.226
2019.07.22 14:07:35.912,-0.662,-3.355,-1.242,4.585,11.695,-5.558,8.000,2.537,13.685,1.398,5.200,-1.649,4.784,11.660,1.937,20.918,-1.678,-1.501,5.907
2019.07.22 14:07:35.916,-1.978,-5.761,-1.761,3.048,11.969,-8.038,8.647,0.452,13.062,0.011,5.520,-5.847,4.214,6.501,0.516,9.422,-2.867,-0.843,4.932
2019.07.22 14:07:35.920,-2.468,-5.734,0.175,2.121,13.021,-9.449,8.967,-1.899,12.441,-0.893,5.149,-9.066,3.463,1.846,0.683,-1.428,-3.247,-0.037,3.712
2019.07.22 14:07:35.924,-1.580,-4.145,3.165,1.793,13.708,-9.903,8.933,-3.580,11.655,-1.282,4.341,-10.141,2.559,-0.782,1.240,-6.699,-2.761,0.720,2.913
2019.07.22 14:07:35.928,0.448,-2.516,4.273,1.494,12.804,-10.215,8.581,-4.071,10.536,-1.477,3.658,-8.912,1.719,-1.134,1.009,-5.697,-2.169,1.070,2.948
2019.07.22 14:07:35.932,3.058,-1.675,1.300,0.583,10.074,-11.070,8.066,-3.599,9.159,-1.930,3.540,-6.390,1.231,-0.240,-0.101,-1.835,-2.362,0.872,3.587
2019.07.22 14:07:35.936,5.718,-1.201,-5.257,-1.117,6.491,-12.437,7.603,-2.901,7.782,-2.916,3.932,-4.191,1.177,0.399,-1.133,0.289,-3.569,0.449,4.029
2019.07.22 14:07:35.940,7.866,-0.101,-12.212,-3.180,3.437,-13.735,7.308,-2.623,6.579,-4.358,4.257,-3.542,1.228,-0.149,-1.194,-1.683,-5.133,0.421,3.442
2019.07.22 14:07:35.944,8.708,2.007,-15.778,-4.934,1.602,-14.492,7.078,-2.851,5.432,-5.879,3.774,-4.513,0.734,-1.668,-0.576,-6.446,-6.031,1.198,1.592
2019.07.22 14:07:35.948,7.369,4.360,-14.194,-5.953,0.498,-14.818,6.639,-3.123,4.026,-7.013,2.091,-6.005,-0.852,-3.076,-0.705,-10.444,-5.699,2.562,-0.909
2019.07.22 14:07:35.952,3.519,5.711,-8.897,-6.263,-0.996,-15.198,5.773,-2.881,2.179,-7.393,-0.492,-6.522,-3.501,-3.320,-2.844,-10.789,-4.472,3.715,-2.934
2019.07.22 14:07:35.956,-1.979,5.571,-3.383,-6.130,-3.546,-15.798,4.558,-1.960,0.139,-6.820,-3.051,-5.199,-6.394,-2.162,-6.632,-7.371,-3.307,3.812,-3.524
2019.07.22 14:07:35.960,-7.092,4.847,-0.678,-5.664,-6.649,-16.009,3.422,-0.709,-1.412,-5.229,-4.459,-2.346,-8.233,-0.277,-9.893,-2.687,-3.032,2.579,-2.452
2019.07.22 14:07:35.964,-9.532,5.204,-1.374,-4.630,-8.865,-14.723,2.949,0.340,-1.682,-2.665,-3.948,0.843,-7.903,1.404,-10.096,0.224,-3.720,0.534,-0.289
2019.07.22 14:07:35.968,-8.066,7.625,-3.622,-2.652,-8.836,-11.240,3.534,0.921,-0.202,0.662,-1.484,3.163,-5.125,2.517,-6.391,-0.028,-4.657,-1.356,2.010
2019.07.22 14:07:35.972,-3.282,11.430,-4.890,0.377,-6.266,-6.017,5.127,1.206,2.917,4.297,2.216,4.182,-0.657,3.531,-0.508,-2.509,-4.866,-2.306,3.677
2019.07.22 14:07:35.976,2.772,14.668,-3.966,4.043,-2.141,-0.589,7.237,1.542,7.033,7.565,6.004,4.360,4.078,5.213,4.338,-5.076,-3.742,-2.152,4.449
2019.07.22 14:07:35.980,7.823,15.634,-1.660,7.540,1.917,3.376,9.186,2.012,11.241,9.769,8.776,4.480,7.689,7.722,5.746,-6.131,-1.372,-1.300,4.482
2019.07.22 14:07:35.984,10.588,14.268,0.182,10.083,4.624,5.180,10.425,2.247,14.675,10.517,9.852,4.894,9.387,10.136,3.760,-5.580,1.631,-0.311,4.001
2019.07.22 14:07:35.988,11.167,12.245,0.349,11.319,5.614,5.490,10.727,1.696,16.699,9.941,9.127,5.197,9.107,10.893,0.490,-4.441,4.548,0.504,3.048
2019.07.22 14:07:35.992,10.510,11.671,-0.787,11.461,5.323,5.737,10.157,0.160,17.012,8.667,6.962,4.562,7.221,8.873,-1.923,-3.763,6.923,1.168,1.485
2019.07.22 14:07:35.996,9.573,13.435,-1.728,11.121,4.427,7.038,8.908,-1.877,15.705,7.506,3.940,2.440,4.160,4.296,-3.206,-3.940,8.689,1.830,-0.738
2019.07.22 14:07:36.000,8.863,16.562,-1.167,11.005,3.389,9.493,7.153,-3.451,13.269,7.070,0.637,-0.952,0.273,-1.274,-5.053,-4.924,10.092,2.517,-3.351
2019.07.22 14:07:36.004,8.589,19.035,0.987,11.649,2.403,12.362,5.014,-3.737,10.474,7.548,-2.509,-4.708,-4.056,-5.856,-9.288,-6.807,11.518,3.114,-5.749
2019.07.22 14:07:36.008,8.975,19.336,3.653,13.273,1.617,14.849,2.621,-2.606,8.082,8.769,-5.224,-7.777,-8.235,-8.185,-15.727,-9.920,13.302,3.535,-7.267
2019.07.22 14:07:36.012,10.251,17.423,5.520,15.705,1.283,16.750,0.163,-0.674,6.486,10.453,-7.393,-9.514,-11.558,-8.235,-21.690,-14.153,15.529,3.885,-7.549
2019.07.22 14:07:36.016,12.233,14.446,6.003,18.388,1.617,18.418,-2.130,1.198,5.531,12.427,-9.055,-9.880,-13.549,-6.833,-23.784,-18.186,17.898,4.408,-6.770
2019.07.22 14:07:36.020,14.021,11.603,5.473,20.509,2.537,20.176,-4.054,2.550,4.676,14.637,-10.408,-9.227,-14.310,-4.821,-20.584,-19.672,19.761,5.258,-5.571
2019.07.22 14:07:36.024,14.317,9.240,4.730,21.302,3.573,21.786,-5.474,3.576,3.435,16.990,-11.760,-7.979,-14.516,-2.529,-14.031,-16.678,20.418,6.335,-4.739
2019.07.22 14:07:36.028,12.336,6.960,4.295,20.441,4.146,22.542,-6.291,4.795,1.791,19.213,-13.389,-6.476,-14.989,0.063,-8.280,-9.453,19.564,7.362,-4.839
2019.07.22 14:07:36.032,8.597,4.504,4.147,18.291,3.977,21.920,-6.389,6.439,0.233,20.904,-15.364,-5.042,-16.130,2.789,-6.832,-0.965,17.574,8.150,-5.980
2019.07.22 14:07:36.036,4.832,2.454,3.992,15.790,3.277,20.192,-5.635,8.112,-0.619,21.779,-17.445,-4.044,-17.662,5.047,-10.148,4.604,15.374,8.793,-7.818
2019.07.22 14:07:36.040,2.894,2.017,3.677,13.970,2.526,18.428,-3.976,9.038,-0.542,21.932,-19.140,-3.742,-18.879,6.199,-15.557,4.614,13.895,9.580,-9.753
2019.07.22 14:07:36.044,3.466,4.023,3.315,13.406,2.041,17.823,-1.543,8.725,0.083,21.885,-19.930,-3.998,-19.207,6.280,-19.425,-0.033,13.483,10.670,-11.198
2019.07.22 14:07:36.048,5.621,8.076,3.071,13.944,1.750,18.904,1.345,7.473,0.569,22.347,-19.525,-4.142,-18.583,6.293,-19.799,-5.339,13.720,11.835,-11.778
2019.07.22 14:07:36.052,7.651,12.656,2.914,14.894,1.408,21.249,4.329,6.273,0.531,23.825,-17.998,-3.255,-17.351,7.617,-17.484,-7.016,13.821,12.537,-11.417
2019.07.22 14:07:36.056,8.502,16.153,2.646,15.521,1.056,23.924,7.213,6.135,0.286,26.314,-15.711,-0.789,-15.796,10.882,-14.895,-3.682,13.293,12.309,-10.288
2019.07.22 14:07:36.060,8.616,17.939,2.193,15.455,1.235,26.197,10.043,7.347,0.681,29.275,-13.118,2.912,-13.778,15.221,-13.833,1.996,12.320,11.140,-8.706
2019.07.22 14:07:36.064,9.417,18.570,1.795,14.745,2.674,27.911,12.979,9.262,2.406,31.876,-10.579,6.658,-10.857,18.638,-14.055,5.248,11.539,9.506,-7.005
2019.07.22 14:07:36.068,11.873,18.984,1.861,13.607,5.614,29.250,16.018,10.784,5.355,33.344,-8.303,9.075,-6.830,19.361,-13.692,2.905,11.394,8.001,-5.449
2019.07.22 14:07:36.072,15.382,19.478,2.583,12.154,9.373,30.221,18.833,11.176,8.540,33.251,-6.403,9.483,-2.210,17.186,-10.973,-3.887,11.654,6.875,-4.185
2019.07.22 14:07:36.076,18.024,19.431,3.696,10.369,12.594,30.430,20.896,10.578,10.696,31.636,-4.963,8.323,1.852,13.752,-5.733,-10.098,11.545,5.886,-3.244
2019.07.22 14:07:36.080,18.038,18.028,4.670,8.318,14.087,29.423,21.851,9.830,11.127,28.980,-4.018,6.797,4.230,11.453,0.452,-10.247,10.435,4.607,-2.560
2019.07.22 14:07:36.084,15.325,15.278,5.178,6.325,13.622,27.281,21.856,9.788,10.127,26.058,-3.481,5.970,4.581,11.770,5.413,-2.446,8.491,2.920,-2.036
2019.07.22 14:07:36.088,11.661,12.311,5.371,4.871,12.019,24.856,21.584,10.651,8.657,23.712,-3.133,5.994,3.554,14.269,7.751,9.870,6.687,1.258,-1.606
2019.07.22 14:07:36.092,9.377,10.563,5.634,4.220,10.428,23.314,21.807,11.829,7.523,22.533,-2.743,6.036,2.255,17.005,7.380,19.871,6.085,0.342,-1.291
2019.07.22 14:07:36.096,9.555,10.518,6.000,4.114,9.377,23.275,22.829,12.388,6.760,22.575,-2.275,4.983,1.367,17.985,5.086,21.656,6.921,0.611,-1.199
2019.07.22 14:07:36.100,11.210,11.117,5.798,3.839,8.387,24.266,24.189,11.713,5.705,23.244,-1.991,2.357,0.675,16.561,1.779,14.048,8.267,1.811,-1.455
2019.07.22 14:07:36.104,12.119,10.474,3.989,2.695,6.495,24.966,24.914,9.878,3.697,23.508,-2.328,-1.230,-0.634,13.731,-1.865,1.328,8.586,3.120,-2.104
2019.07.22 14:07:36.108,10.598,7.364,0.024,0.534,3.229,24.122,24.182,7.502,0.786,22.394,-3.580,-4.451,-3.122,11.227,-5.265,-9.523,6.805,3.726,-3.038
2019.07.22 14:07:36.112,6.745,2.271,-5.481,-2.096,-0.820,21.390,21.932,5.279,-2.189,19.510,-5.631,-6.156,-6.472,10.154,-7.796,-13.173,3.079,3.421,-4.023
2019.07.22 14:07:36.116,2.167,-2.929,-10.903,-4.342,-4.367,17.469,18.973,3.549,-4.248,15.268,-7.956,-6.154,-9.626,10.236,-9.070,-9.058,-1.331,2.722,-4.824
2019.07.22 14:07:36.120,-1.484,-6.416,-14.630,-5.719,-6.473,13.431,16.493,2.215,-5.112,10.614,-9.936,-5.302,-11.608,10.117,-9.440,-1.383,-4.960,2.455,-5.344
2019.07.22 14:07:36.124,-3.858,-7.850,-16.152,-6.515,-7.348,9.861,15.327,0.946,-5.499,6.455,-11.253,-4.897,-12.317,8.399,-10.086,3.779,-7.114,3.106,-5.681
2019.07.22 14:07:36.128,-5.994,-8.564,-16.351,-7.603,-8.185,6.540,15.501,-0.525,-6.572,3.160,-12.056,-5.810,-12.588,4.581,-12.294,2.302,-8.181,4.475,-6.030
2019.07.22 14:07:36.132,-9.142,-10.389,-16.678,-9.767,-10.089,2.907,16.372,-2.234,-8.933,0.528,-12.744,-7.974,-13.433,-0.679,-16.319,-5.621,-9.110,5.860,-6.505
2019.07.22 14:07:36.136,-13.410,-14.049,-17.857,-13.021,-12.973,-1.134,17.205,-3.967,-11.992,-1.797,-13.555,-10.521,-15.088,-6.008,-20.803,-15.871,-10.532,6.601,-7.005
2019.07.22 14:07:36.140,-17.443,-18.437,-19.187,-16.442,-15.399,-4.811,17.725,-5.319,-14.259,-3.791,-14.297,-12.403,-16.695,-10.023,-23.431,-23.103,-12.222,6.548,-7.265
2019.07.22 14:07:36.144,-19.396,-21.340,-19.054,-18.644,-15.582,-6.884,18.235,-5.777,-14.381,-4.890,-14.483,-13.020,-16.930,-11.862,-22.518,-23.994,-13.289,6.102,-7.050
2019.07.22 14:07:36.148,-18.315,-21.037,-16.277,-18.586,-12.807,-6.562,19.255,-4.879,-12.123,-4.387,-13.762,-12.472,-15.085,-11.380,-18.341,-19.080,-12.860,5.862,-6.376
2019.07.22 14:07:36.152,-14.772,-17.529,-11.218,-16.222,-8.117,-4.209,21.041,-2.501,-8.538,-2.124,-12.284,-11.329,-11.693,-9.097,-13.090,-12.157,-10.726,6.164,-5.544
2019.07.22 14:07:36.156,-10.275,-12.553,-5.751,-12.596,-3.673,-1.273,23.377,0.856,-5.185,1.084,-10.655,-10.187,-8.180,-6.009,-9.385,-7.717,-7.498,6.876,-4.947
2019.07.22 14:07:36.160,-6.109,-8.473,-2.079,-9.392,-1.255,0.515,25.799,4.011,-3.029,3.686,-9.493,-9.307,-5.802,-3.260,-8.457,-8.037,-4.268,7.535,-4.762
2019.07.22 14:07:36.164,-2.683,-6.951,-1.322,-8.178,-1.072,0.087,28.003,5.516,-1.893,4.228,-8.929,-8.564,-4.756,-1.669,-9.410,-11.749,-2.079,7.676,-4.778
2019.07.22 14:07:36.168,0.129,-8.274,-2.923,-9.715,-1.796,-2.505,30.053,4.421,-0.852,2.225,-8.504,-7.662,-4.186,-1.302,-10.128,-14.820,-1.542,7.097,-4.504
2019.07.22 14:07:36.172,2.139,-11.590,-5.262,-13.601,-1.759,-6.320,32.193,0.958,0.796,-1.528,-7.561,-6.415,-3.068,-1.402,-9.066,-13.344,-2.714,5.917,-3.517
2019.07.22 14:07:36.176,2.523,-15.599,-6.900,-18.384,-0.332,-10.161,34.448,-3.385,2.827,-5.446,-5.861,-4.915,-1.201,-0.879,-6.455,-6.349,-5.145,4.463,-1.808
2019.07.22 14:07:36.180,0.461,-19.132,-7.450,-22.120,1.632,-13.110,36.370,-6.586,4.237,-8.093,-3.883,-3.492,0.554,0.885,-4.004,3.303,-8.005,3.096,0.161
2019.07.22 14:07:36.184,-3.779,-21.356,-7.506,-23.199,2.587,-14.709,37.210,-7.222,4.109,-8.926,-2.548,-2.504,0.973,3.484,-3.404,10.615,-10.307,2.104,1.734
2019.07.22 14:07:36.188,-8.436,-21.800,-7.825,-21.099,1.643,-14.870,36.409,-5.283,2.477,-8.368,-2.539,-2.108,-0.455,5.696,-4.909,11.707,-11.249,1.637,2.490
2019.07.22 14:07:36.192,-11.124,-20.418,-8.558,-16.661,-0.648,-13.744,34.031,-2.101,0.457,-7.250,-3.769,-2.148,-2.997,6.386,-7.126,6.423,-10.581,1.691,2.515
2019.07.22 14:07:36.196,-10.435,-17.687,-9.133,-11.654,-2.647,-11.677,30.794,0.572,-0.476,-6.114,-5.416,-2.221,-5.125,5.454,-8.120,-1.557,-8.745,2.133,2.318
2019.07.22 14:07:36.200,-6.959,-14.483,-8.785,-7.806,-2.817,-9.173,27.682,1.690,0.500,-4.911,-6.512,-1.913,-5.594,4.028,-6.857,-7.192,-6.619,2.774,2.443
2019.07.22 14:07:36.204,-2.815,-11.657,-7.190,-5.849,-0.763,-6.726,25.424,1.455,3.016,-3.283,-6.620,-1.068,-4.269,3.688,-3.844,-7.409,-4.957,3.479,3.080
2019.07.22 14:07:36.208,0.000,-9.548,-4.668,-5.227,2.624,-4.609,24.208,0.935,5.817,-1.112,-6.050,0.073,-2.100,5.259,-0.551,-2.881,-3.941,4.239,3.950
2019.07.22 14:07:36.212,1.073,-7.892,-1.909,-4.693,5.898,-2.796,23.778,1.107,7.609,1.134,-5.483,0.967,-0.310,8.129,1.784,2.947,-3.200,5.125,4.534
2019.07.22 14:07:36.216,1.602,-6.300,0.440,-3.400,7.984,-1.189,23.740,2.082,7.782,2.584,-5.345,1.054,0.478,10.659,2.955,6.709,-2.332,6.152,4.461
2019.07.22 14:07:36.220,2.978,-4.924,1.922,-1.667,8.582,0.014,23.784,3.097,6.518,2.507,-5.480,0.078,0.491,11.356,3.627,7.560,-1.470,7.157,3.759
2019.07.22 14:07:36.224,5.172,-4.645,2.153,-0.800,7.906,0.160,23.663,3.203,4.353,0.801,-5.413,-1.776,0.319,9.901,4.499,7.310,-1.377,7.839,2.792
2019.07.22 14:07:36.228,6.419,-6.460,0.743,-2.035,6.190,-1.529,23.067,2.086,1.678,-1.935,-4.946,-4.000,0.189,7.210,5.566,8.288,-2.884,7.953,1.965
2019.07.22 14:07:36.232,4.579,-10.439,-2.475,-5.396,3.532,-5.288,21.607,0.355,-1.402,-4.770,-4.551,-6.052,-0.325,4.561,6.060,10.843,-6.096,7.515,1.428
2019.07.22 14:07:36.236,-0.904,-15.166,-7.028,-9.379,0.171,-10.290,19.039,-0.889,-4.807,-6.925,-5.146,-7.613,-1.938,2.575,5.032,12.700,-10.023,6.848,1.023
2019.07.22 14:07:36.240,-8.120,-18.280,-11.644,-11.776,-3.186,-14.782,15.553,-0.811,-8.192,-8.027,-7.390,-8.655,-4.958,0.915,2.042,10.782,-13.024,6.383,0.468
2019.07.22 14:07:36.244,-13.730,-17.918,-14.684,-11.110,-5.484,-16.918,11.855,0.651,-10.954,-8.007,-11.029,-9.313,-8.878,-1.088,-2.537,3.996,-13.787,6.394,-0.369
2019.07.22 14:07:36.248,-15.166,-14.008,-14.987,-7.620,-5.932,-15.798,8.877,2.883,-12.584,-6.850,-14.862,-9.723,-12.588,-3.525,-7.690,-5.427,-12.115,6.848,-1.347
2019.07.22 14:07:36.252,-12.308,-8.407,-12.582,-3.085,-4.632,-11.986,7.268,5.114,-13.010,-4.516,-17.381,-9.963,-15.020,-5.580,-12.182,-13.296,-8.919,7.502,-2.164
2019.07.22 14:07:36.256,-7.346,-3.708,-8.672,0.382,-2.635,-7.165,7.023,6.885,-12.612,-1.130,-17.679,-10.115,-15.715,-6.140,-14.945,-16.475,-5.489,8.116,-2.609
2019.07.22 14:07:36.260,-3.054,-1.588,-4.890,1.661,-1.282,-3.156,7.525,8.128,-11.861,2.737,-15.948,-10.336,-14.947,-4.793,-15.378,-15.089,-2.640,8.578,-2.744
2019.07.22 14:07:36.264,-0.914,-1.906,-2.338,1.135,-1.291,-0.995,7.960,8.916,-10.933,6.061,-13.272,-10.781,-13.409,-2.299,-13.588,-12.056,-0.419,8.819,-2.870
2019.07.22 14:07:36.268,-0.530,-3.147,-1.108,0.122,-2.305,-0.596,7.786,9.239,-9.663,7.781,-10.884,-11.421,-11.798,-0.068,-10.507,-10.354,1.516,8.653,-3.296
2019.07.22 14:07:36.272,-0.582,-3.704,-0.534,-0.207,-3.243,-1.104,6.930,9.062,-7.892,7.455,-9.458,-11.899,-10.590,0.961,-7.662,-10.388,3.317,7.771,-4.075
2019.07.22 14:07:36.276,-0.257,-2.926,0.126,0.457,-3.136,-1.528,5.617,8.598,-5.862,5.678,-8.876,-11.626,-10.036,1.062,-6.493,-9.780,4.776,5.999,-4.902
2019.07.22 14:07:36.280,0.171,-1.159,1.180,1.680,-1.753,-1.201,4.053,8.428,-4.251,3.885,-8.520,-10.147,-10.186,1.416,-7.492,-5.845,5.704,3.625,-5.246
2019.07.22 14:07:36.284,0.036,0.993,2.513,2.961,0.447,0.102,2.274,9.211,-3.719,3.533,-7.773,-7.542,-10.827,2.970,-9.750,1.385,6.405,1.451,-4.645
2019.07.22 14:07:36.288,-0.601,3.341,3.930,4.247,2.874,2.240,0.275,11.113,-4.341,5.160,-6.342,-4.554,-11.428,5.433,-11.395,8.319,7.651,0.402,-2.983
2019.07.22 14:07:36.292,-0.615,6.011,5.400,5.811,5.300,4.739,-1.747,13.437,-5.433,7.937,-4.265,-2.282,-11.289,7.291,-10.793,10.136,10.001,0.880,-0.591
2019.07.22 14:07:36.296,1.277,8.753,6.933,7.666,7.813,6.789,-3.335,14.854,-5.998,10.070,-1.752,-1.589,-9.964,6.883,-7.730,4.554,13.056,2.378,1.876
2019.07.22 14:07:36.300,5.156,10.496,8.279,9.149,10.340,7.412,-4.008,14.212,-5.493,9.871,0.916,-2.600,-7.672,3.693,-3.687,-6.021,15.395,3.725,3.726
2019.07.22 14:07:36.304,9.427,9.831,8.880,9.170,12.295,5.915,-3.636,11.363,-4.288,6.833,3.371,-4.631,-5.327,-1.146,-0.902,-15.853,15.475,3.869,4.519
2019.07.22 14:07:36.308,11.838,6.213,8.262,7.029,12.824,2.448,-2.628,7.362,-3.410,2.027,5.166,-6.580,-4.020,-5.537,-0.834,-19.801,12.887,2.646,4.230
2019.07.22 14:07:36.312,11.291,0.865,6.598,3.118,11.533,-1.795,-1.725,3.833,-3.740,-2.447,5.920,-7.534,-4.247,-7.728,-3.148,-16.753,8.941,0.919,3.214
2019.07.22 14:07:36.316,8.901,-3.564,4.877,-1.107,9.072,-5.039,-1.520,1.915,-5.268,-4.633,5.586,-7.193,-5.486,-7.253,-5.964,-9.959,5.967,-0.043,1.998
2019.07.22 14:07:36.320,7.323,-4.555,4.397,-3.963,6.944,-5.898,-2.066,1.572,-7.034,-3.796,4.571,-5.912,-6.499,-4.915,-7.190,-4.153,5.761,0.511,1.015
2019.07.22 14:07:36.324,8.757,-1.413,5.865,-4.585,6.577,-4.217,-2.869,1.764,-7.802,-0.763,3.538,-4.410,-6.234,-2.023,-5.959,-1.991,8.317,2.306,0.409
2019.07.22 14:07:36.328,13.191,4.229,8.815,-3.403,8.304,-1.181,-3.279,1.339,-6.967,2.628,2.938,-3.402,-4.659,0.392,-3.173,-2.697,11.853,4.343,0.006
2019.07.22 14:07:36.332,18.312,9.514,11.856,-1.748,11.112,1.436,-2.968,-0.061,-4.975,4.587,2.623,-3.356,-2.883,1.804,-0.836,-3.819,14.126,5.749,-0.547
2019.07.22 14:07:36.336,21.191,12.264,13.607,-0.938,13.390,2.358,-2.132,-1.791,-2.972,4.277,1.892,-4.422,-2.408,1.936,-0.773,-4.199,13.999,6.446,-1.555
2019.07.22 14:07:36.340,20.408,12.223,13.612,-1.542,14.122,1.467,-1.289,-2.815,-1.952,2.069,0.015,-6.449,-4.040,0.527,-3.629,-5.325,12.066,7.102,-3.097
2019.07.22 14:07:36.344,16.995,10.789,12.520,-3.320,13.577,-0.371,-0.849,-2.617,-2.088,-0.896,-3.112,-9.018,-7.254,-2.486,-8.713,-9.730,9.905,8.415,-4.968
2019.07.22 14:07:36.348,13.503,9.601,11.418,-5.700,12.951,-2.088,-0.809,-1.654,-2.738,-3.455,-6.688,-11.522,-10.476,-6.556,-14.576,-17.915,8.682,10.371,-6.772
2019.07.22 14:07:36.352,12.045,9.228,10.905,-8.286,13.282,-3.124,-0.793,-0.994,-3.040,-4.995,-9.385,-13.361,-12.101,-10.417,-19.760,-26.753,8.294,12.130,-8.096
2019.07.22 14:07:36.356,12.870,9.027,10.698,-10.944,14.542,-3.558,-0.377,-1.436,-2.596,-5.563,-10.138,-14.233,-11.491,-12.665,-23.294,-31.161,7.732,12.655,-8.660
2019.07.22 14:07:36.360,14.506,8.127,10.055,-13.506,15.669,-3.687,0.593,-2.857,-1.688,-5.579,-8.825,-14.336,-9.284,-12.711,-24.830,-27.989,6.251,11.557,-8.397
2019.07.22 14:07:36.364,15.200,6.556,8.613,-15.484,15.512,-3.534,1.909,-4.320,-0.907,-5.454,-6.334,-14.279,-6.835,-11.333,-24.601,-18.910,4.270,9.432,-7.428
2019.07.22 14:07:36.368,14.398,5.464,6.870,-16.178,13.904,-2.748,3.198,-4.846,-0.532,-5.348,-3.981,-14.672,-5.257,-10.240,-23.291,-9.711,3.174,7.412,-5.996
2019.07.22 14:07:36.372,13.122,6.256,5.877,-15.156,11.986,-0.950,4.205,-4.214,-0.188,-5.143,-2.695,-15.624,-4.724,-10.804,-21.747,-6.210,4.182,6.306,-4.377
2019.07.22 14:07:36.376,13.094,9.434,6.407,-12.680,11.497,1.879,4.945,-3.116,0.949,-4.537,-2.524,-16.532,-4.469,-12.910,-20.496,-9.897,7.272,6.045,-2.817
2019.07.22 14:07:36.380,15.419,14.164,8.322,-9.672,13.581,5.343,5.625,-2.540,3.573,-3.138,-2.759,-16.367,-3.392,-14.840,-19.276,-16.761,11.075,5.884,-1.481
2019.07.22 14:07:36.384,19.851,18.921,10.669,-7.176,17.980,8.954,6.429,-2.893,7.720,-0.597,-2.511,-14.332,-0.794,-14.396,-17.005,-20.293,13.841,5.139,-0.418
2019.07.22 14:07:36.388,25.047,22.583,12.395,-5.728,23.171,12.457,7.340,-3.595,12.641,3.193,-1.297,-10.442,3.220,-10.488,-12.438,-16.357,14.648,3.805,0.437
2019.07.22 14:07:36.392,29.391,25.033,13.061,-5.108,27.259,15.799,8.123,-3.504,17.144,7.832,0.754,-5.613,7.848,-4.008,-5.220,-6.158,13.878,2.524,1.218
2019.07.22 14:07:36.396,31.740,26.818,12.964,-4.657,28.966,18.766,8.473,-1.865,20.150,12.285,3.118,-1.187,12.040,2.648,3.442,4.888,12.645,1.964,2.056
2019.07.22 14:07:36.400,31.711,28.336,12.636,-3.864,28.100,20.696,8.190,0.971,21.162,15.116,5.254,1.799,14.989,7.061,11.114,11.315,11.769,2.193,2.997
2019.07.22 14:07:36.404,29.660,29.375,12.262,-2.743,25.407,20.699,7.302,3.641,20.428,15.126,6.854,3.086,16.404,8.190,15.458,11.414,11.211,2.620,3.967
2019.07.22 14:07:36.408,26.604,29.451,11.549,-1.732,22.092,18.331,6.050,4.636,18.781,12.081,7.833,3.130,16.500,6.745,15.664,7.835,10.390,2.557,4.798
2019.07.22 14:07:36.412,24.089,28.527,10.171,-1.280,19.397,14.189,4.769,3.311,17.257,7.045,8.176,2.627,15.779,4.403,12.960,4.851,8.986,1.882,5.306
2019.07.22 14:07:36.416,23.731,27.311,8.297,-1.502,18.312,9.799,3.710,0.297,16.634,1.959,7.852,2.013,14.741,2.570,9.760,4.797,7.376,1.200,5.390
2019.07.22 14:07:36.420,26.349,26.711,6.636,-2.223,19.327,6.745,2.893,-2.958,17.067,-1.397,6.864,1.315,13.654,1.619,8.071,6.612,6.280,1.327,5.081
2019.07.22 14:07:36.424,31.117,26.898,5.880,-3.295,22.143,5.598,2.059,-5.162,17.993,-2.414,5.361,0.365,12.478,1.023,8.298,7.395,5.938,2.540,4.536
2019.07.22 14:07:36.428,35.527,26.903,5.998,-4.878,25.541,5.512,0.773,-5.955,18.405,-1.970,3.657,-0.859,10.975,0.100,9.281,5.320,5.642,4.244,3.979
2019.07.22 14:07:36.432,36.544,25.270,6.035,-7.376,27.707,4.854,-1.340,-5.971,17.393,-1.779,2.089,-2.101,8.935,-1.338,9.402,1.308,4.136,5.372,3.598
2019.07.22 14:07:36.436,32.455,21.315,4.676,-11.080,27.045,2.435,-4.349,-6.218,14.686,-3.198,0.830,-2.989,6.373,-2.893,7.830,-1.868,0.608,5.209,3.467
2019.07.22 14:07:36.440,24.164,15.909,1.175,-15.808,23.083,-1.602,-7.910,-7.284,10.818,-6.344,-0.197,-3.322,3.553,-3.995,4.945,-2.036,-4.577,3.932,3.506
2019.07.22 14:07:36.444,14.831,10.982,-4.090,-20.871,16.840,-5.935,-11.397,-8.954,6.795,-10.120,-1.214,-3.215,0.820,-4.394,1.783,0.582,-10.071,2.454,3.528
2019.07.22 14:07:36.448,7.923,8.046,-9.889,-25.405,10.290,-9.123,-14.204,-10.426,3.437,-13.120,-2.368,-2.985,-1.621,-4.329,-0.875,3.713,-14.542,1.680,3.342
2019.07.22 14:07:36.452,4.954,6.931,-14.995,-28.825,5.193,-10.701,-16.032,-10.907,0.878,-14.688,-3.573,-2.899,-3.799,-4.330,-2.945,5.006,-17.650,1.810,2.876
2019.07.22 14:07:36.456,4.569,5.859,-18.949,-31.076,2.094,-11.446,-16.954,-10.115,-1.404,-15.309,-4.523,-2.999,-5.834,-4.863,-4.736,3.813,-20.182,2.243,2.251
2019.07.22 14:07:36.460,3.704,2.920,-22.133,-32.537,0.174,-12.631,-17.245,-8.387,-4.040,-16.061,-4.862,-3.132,-7.699,-6.100,-6.339,1.327,-23.241,2.108,1.740
2019.07.22 14:07:36.464,-0.021,-2.206,-25.165,-33.703,-1.927,-14.903,-17.112,-6.401,-7.123,-17.587,-4.388,-3.099,-9.084,-7.864,-7.363,-0.770,-27.193,0.972,1.643
2019.07.22 14:07:36.468,-6.451,-7.686,-28.178,-34.863,-4.967,-17.732,-16.552,-4.786,-9.975,-19.456,-3.137,-2.764,-9.534,-9.709,-7.260,-1.704,-31.256,-0.870,2.137
2019.07.22 14:07:36.472,-12.976,-10.678,-30.593,-35.978,-8.473,-19.827,-15.448,-3.887,-11.548,-20.435,-1.329,-2.044,-8.770,-11.041,-5.851,-1.818,-34.063,-2.708,3.204
2019.07.22 14:07:36.476,-16.420,-9.320,-31.525,-36.743,-11.073,-20.134,-13.797,-3.741,-11.128,-19.478,0.780,-0.853,-6.942,-11.308,-3.495,-1.657,-34.684,-3.997,4.662
2019.07.22 14:07:36.480,-15.261,-4.050,-30.437,-36.741,-11.465,-18.561,-11.831,-4.179,-8.818,-16.616,3.011,0.854,-4.574,-10.263,-0.746,-1.122,-33.255,-4.718,6.286
2019.07.22 14:07:36.484,-10.515,2.760,-27.471,-35.626,-9.267,-15.884,-9.912,-4.915,-5.415,-13.019,5.288,2.935,-2.237,-8.179,2.096,0.314,-30.739,-5.250,7.897
2019.07.22 14:07:36.488,-4.744,8.478,-23.246,-33.293,-5.165,-12.994,-8.261,-5.599,-1.817,-10.172,7.588,4.959,-0.198,-5.813,4.997,2.594,-28.099,-5.947,9.373
2019.07.22 14:07:36.492,-0.123,11.873,-18.414,-30.019,-0.369,-10.216,-6.782,-5.895,1.525,-8.818,9.860,6.327,1.658,-4.009,7.741,4.498,-25.647,-6.824,10.596
2019.07.22 14:07:36.496,2.854,13.492,-13.415,-26.483,4.101,-7.293,-5.156,-5.611,4.655,-8.515,11.977,6.633,3.580,-3.148,9.530,4.434,-23.104,-7.629,11.416
2019.07.22 14:07:36.500,5.090,14.641,-8.648,-23.569,7.721,-3.998,-3.172,-4.848,7.656,-8.166,13.737,5.992,5.581,-2.872,9.282,2.066,-20.210,-8.152,11.706
2019.07.22 14:07:36.504,7.480,15.961,-4.777,-21.990,10.277,-0.746,-1.008,-4.002,10.142,-7.063,14.898,5.053,7.283,-2.396,6.584,-0.831,-17.274,-8.454,11.474
2019.07.22 14:07:36.508,9.715,16.841,-2.752,-21.913,11.500,1.407,0.786,-3.600,11.199,-5.602,15.244,4.568,8.090,-1.283,2.498,-1.491,-15.115,-8.765,10.928
2019.07.22 14:07:36.512,10.366,16.092,-3.354,-22.886,10.986,1.446,1.624,-4.015,9.894,-5.056,14.646,4.817,7.559,-0.065,-0.710,1.349,-14.469,-9.183,10.389
2019.07.22 14:07:36.516,8.141,13.196,-6.590,-24.154,8.497,-0.789,1.281,-5.270,5.980,-6.600,13.106,5.324,5.639,-0.134,-1.041,5.720,-15.412,-9.475,10.089
2019.07.22 14:07:36.520,3.183,8.993,-11.470,-25.206,4.340,-4.377,0.035,-7.050,0.220,-10.358,10.759,5.166,2.629,-2.797,1.561,7.322,-17.348,-9.223,9.982
2019.07.22 14:07:36.524,-2.753,5.195,-16.456,-26.133,-0.589,-7.875,-1.568,-8.905,-5.947,-15.207,7.851,3.687,-1.056,-8.130,4.789,2.831,-19.537,-8.205,9.757
2019.07.22 14:07:36.528,-7.431,3.159,-20.325,-27.523,-5.220,-10.250,-3.104,-10.485,-11.145,-19.495,4.697,1.097,-5.030,-14.517,5.414,-6.900,-21.673,-6.672,9.077
2019.07.22 14:07:36.532,-9.674,2.954,-22.813,-29.923,-8.860,-11.442,-4.503,-11.628,-14.659,-22.083,1.649,-1.545,-8.868,-19.387,1.715,-16.581,-23.952,-5.256,7.881
2019.07.22 14:07:36.536,-10.039,3.461,-24.540,-33.272,-11.445,-12.163,-5.920,-12.285,-16.502,-22.923,-0.927,-2.991,-11.941,-20.730,-4.950,-19.863,-26.591,-4.546,6.520
2019.07.22 14:07:36.540,-10.130,3.375,-26.306,-36.754,-13.285,-13.149,-7.394,-12.393,-17.005,-22.803,-2.699,-2.644,-13.462,-18.377,-10.800,-14.050,-29.267,-4.680,5.567
2019.07.22 14:07:36.544,-11.141,2.222,-28.324,-39.199,-14.540,-14.525,-8.630,-11.846,-16.394,-22.547,-3.471,-0.939,-12.853,-14.084,-12.209,-2.474,-31.069,-5.270,5.428
2019.07.22 14:07:36.548,-12.841,0.603,-29.998,-39.758,-14.930,-15.761,-9.127,-10.585,-14.718,-22.362,-3.308,1.015,-10.251,-10.347,-8.333,7.545,-31.077,-5.723,6.038
2019.07.22 14:07:36.552,-13.806,-0.435,-30.396,-38.364,-13.927,-16.178,-8.560,-8.719,-12.135,-21.798,-2.588,2.248,-6.690,-8.779,-1.774,9.804,-29.106,-5.654,6.877
2019.07.22 14:07:36.556,-12.668,-0.274,-29.004,-35.664,-11.298,-15.514,-7.065,-6.518,-9.177,-20.271,-1.894,2.563,-3.699,-9.201,3.269,3.558,-25.961,-5.078,7.320
2019.07.22 14:07:36.560,-9.327,0.909,-26.136,-32.540,-7.513,-14.051,-5.163,-4.271,-6.655,-17.609,-1.743,2.508,-2.473,-10.038,3.973,-6.228,-22.936,-4.266,7.065
2019.07.22 14:07:36.564,-5.142,2.513,-22.698,-29.585,-3.640,-12.252,-3.353,-2.120,-5.187,-14.184,-2.291,2.770,-3.175,-9.621,0.752,-12.806,-20.917,-3.443,6.310
2019.07.22 14:07:36.568,-1.958,4.182,-19.534,-26.915,-0.752,-10.289,-1.716,-0.033,-4.749,-10.573,-3.192,3.516,-4.881,-7.387,-3.335,-12.611,-19.805,-2.636,5.569
2019.07.22 14:07:36.572,-0.754,6.140,-16.905,-24.329,0.724,-7.910,0.111,2.055,-4.652,-7.132,-3.760,4.243,-6.217,-4.107,-5.025,-7.403,-18.703,-1.780,5.271
2019.07.22 14:07:36.576,-0.947,8.891,-14.486,-21.606,1.251,-4.763,2.566,4.051,-4.030,-3.888,-3.333,4.227,-6.224,-1.119,-3.168,-2.122,-16.677,-0.933,5.487
2019.07.22 14:07:36.580,-0.862,12.616,-11.833,-18.638,1.826,-0.878,5.715,5.674,-2.454,-0.819,-1.637,3.192,-4.819,0.726,0.822,-0.524,-13.485,-0.350,5.983
2019.07.22 14:07:36.584,1.008,16.818,-8.876,-15.383,3.313,3.138,9.112,6.644,-0.196,1.820,1.086,1.600,-2.590,1.549,4.482,-2.310,-9.719,-0.301,6.510
2019.07.22 14:07:36.588,4.898,20.536,-6.059,-11.796,5.882,6.373,12.100,6.964,2.032,3.479,4.238,0.328,-0.189,2.075,6.358,-3.991,-6.323,-0.785,7.057
2019.07.22 14:07:36.592,9.563,22.940,-4.049,-7.913,8.923,8.138,14.273,7.034,3.619,3.687,7.165,0.010,2.088,2.843,6.843,-2.469,-3.936,-1.437,7.812
2019.07.22 14:07:36.596,13.063,23.791,-3.285,-4.050,11.411,8.333,15.691,7.446,4.385,2.489,9.377,0.592,4.207,3.714,7.278,1.970,-2.578,-1.729,8.876
2019.07.22 14:07:36.600,13.947,23.444,-3.742,-0.860,12.475,7.398,16.647,8.579,4.473,0.533,10.565,1.453,5.973,4.075,8.311,5.863,-1.813,-1.357,9.989
2019.07.22 14:07:36.604,12.067,22.467,-5.004,0.923,11.830,5.958,17.238,10.270,3.995,-1.322,10.526,1.975,6.800,3.475,9.102,5.726,-1.168,-0.475,10.589
2019.07.22 14:07:36.608,8.587,21.246,-6.517,0.977,9.903,4.470,17.151,11.854,2.841,-2.562,9.160,2.037,6.032,2.099,8.121,1.298,-0.405,0.424,10.194
2019.07.22 14:07:36.612,5.263,19.893,-7.799,-0.285,7.608,3.124,15.955,12.561,0.900,-3.277,6.621,2.040,3.600,0.657,4.784,-4.034,0.493,0.880,8.836
2019.07.22 14:07:36.616,3.488,18.409,-8.510,-1.880,5.904,1.983,13.658,12.006,-1.546,-3.904,3.476,2.456,0.423,-0.183,0.414,-6.025,1.454,0.808,7.162
2019.07.22 14:07:36.620,3.602,16.853,-8.475,-2.896,5.309,1.132,11.014,10.422,-3.699,-4.681,0.644,3.324,-1.973,-0.298,-2.462,-3.165,2.356,0.529,6.046
2019.07.22 14:07:36.624,4.784,15.291,-7.776,-3.163,5.587,0.667,9.203,8.475,-4.688,-5.330,-1.003,4.141,-2.468,-0.116,-2.012,2.042,2.928,0.476,5.972
2019.07.22 14:07:36.628,5.516,13.597,-6.856,-3.429,5.796,0.535,9.021,6.815,-4.291,-5.270,-1.186,4.246,-1.267,-0.172,1.338,5.207,2.715,0.840,6.633
2019.07.22 14:07:36.632,4.365,11.399,-6.451,-4.833,4.760,0.428,10.192,5.703,-3.344,-4.214,-0.504,3.357,0.049,-0.639,4.982,3.746,1.294,1.435,7.092
2019.07.22 14:07:36.636,0.732,8.330,-7.245,-8.030,1.773,-0.116,11.406,4.977,-3.362,-2.618,-0.166,1.794,-0.483,-1.274,5.870,-1.041,-1.346,1.868,6.415
2019.07.22 14:07:36.640,-4.787,4.451,-9.384,-12.605,-2.863,-1.440,11.149,4.327,-5.515,-1.560,-1.244,0.223,-3.820,-1.803,2.602,-5.222,-4.589,1.859,4.331
2019.07.22 14:07:36.644,-10.615,0.504,-12.221,-17.234,-7.862,-3.538,8.769,3.627,-9.706,-2.060,-3.931,-0.855,-9.166,-2.325,-3.655,-5.669,-7.441,1.429,1.458
2019.07.22 14:07:36.648,-14.919,-2.331,-14.591,-20.479,-11.600,-6.034,4.975,3.047,-14.481,-4.343,-7.354,-1.420,-14.434,-3.326,-10.053,-2.683,-9.152,0.836,-1.079
2019.07.22 14:07:36.652,-16.501,-3.068,-15.535,-21.649,-13.076,-8.395,1.365,2.883,-17.940,-7.624,-10.111,-1.808,-17.622,-5.218,-13.987,0.390,-9.768,0.322,-2.350
2019.07.22 14:07:36.656,-15.401,-1.557,-14.996,-21.137,-12.534,-10.195,-0.694,3.269,-19.024,-10.604,-11.209,-2.301,-18.095,-7.822,-14.636,0.103,-10.125,-0.087,-2.152
2019.07.22 14:07:36.660,-12.875,1.307,-13.959,-20.030,-11.344,-11.275,-0.984,4.030,-18.229,-12.318,-10.725,-2.826,-16.867,-10.300,-13.110,-4.206,-11.223,-0.580,-1.038
2019.07.22 14:07:36.664,-10.757,3.991,-13.828,-19.355,-11.154,-11.730,-0.500,4.804,-17.222,-12.712,-9.700,-3.034,-15.728,-11.685,-11.334,-10.043,-13.393,-1.377,0.131
2019.07.22 14:07:36.668,-10.546,5.070,-15.428,-19.506,-12.892,-11.808,-0.614,5.328,-17.619,-12.563,-9.343,-2.652,-15.906,-11.619,-10.652,-14.068,-15.924,-2.526,0.748
2019.07.22 14:07:36.672,-12.703,3.900,-18.338,-20.212,-16.251,-11.824,-2.016,5.634,-19.865,-12.830,-10.126,-1.767,-17.279,-10.687,-11.146,-14.895,-17.460,-3.843,0.763
2019.07.22 14:07:36.676,-16.490,0.858,-21.075,-20.940,-19.966,-12.108,-4.230,6.018,-22.982,-13.977,-11.437,-0.751,-18.641,-10.026,-11.982,-13.918,-16.902,-5.007,0.572
2019.07.22 14:07:36.680,-20.363,-2.918,-22.038,-21.352,-22.626,-12.905,-6.016,6.776,-25.332,-15.719,-12.060,0.101,-18.722,-10.473,-12.283,-13.547,-14.185,-5.749,0.658
2019.07.22 14:07:36.684,-22.679,-6.083,-20.597,-21.476,-23.422,-14.241,-6.319,7.928,-25.762,-17.354,-11.101,0.834,-17.130,-11.927,-11.772,-14.652,-10.364,-5.984,1.265
2019.07.22 14:07:36.688,-22.372,-7.652,-17.532,-21.566,-22.392,-15.822,-4.991,9.106,-24.292,-18.333,-8.678,1.726,-14.541,-13.466,-10.769,-15.649,-6.997,-5.839,2.311
2019.07.22 14:07:36.692,-19.366,-7.366,-14.544,-21.855,-20.126,-17.122,-2.788,9.689,-21.922,-18.638,-5.866,2.860,-12.098,-14.121,-9.706,-14.105,-5.294,-5.573,3.511
2019.07.22 14:07:36.696,-14.631,-5.732,-13.170,-22.443,-17.339,-17.679,-0.717,9.088,-19.852,-18.731,-3.971,3.799,-10.583,-13.696,-8.657,-9.338,-5.595,-5.439,4.578
2019.07.22 14:07:36.700,-9.881,-3.764,-13.858,-23.346,-14.654,-17.428,0.674,7.028,-18.751,-19.152,-3.680,3.728,-10.020,-12.937,-7.273,-3.524,-7.438,-5.558,5.327
2019.07.22 14:07:36.704,-6.983,-2.501,-15.841,-24.574,-12.655,-16.823,1.520,3.683,-18.572,-20.139,-4.714,2.050,-9.920,-12.896,-5.155,-0.145,-10.008,-5.831,5.675
2019.07.22 14:07:36.708,-7.225,-2.522,-17.807,-26.104,-11.965,-16.578,2.268,-0.375,-18.885,-21.492,-6.168,-1.026,-9.860,-14.002,-2.368,-1.107,-12.591,-5.965,5.589
2019.07.22 14:07:36.712,-10.709,-3.706,-18.860,-27.776,-13.061,-17.203,3.086,-4.380,-19.315,-22.758,-7.238,-4.447,-9.854,-15.633,0.300,-5.126,-14.744,-5.625,5.069
2019.07.22 14:07:36.716,-16.200,-5.368,-19.052,-29.272,-15.879,-18.649,3.598,-7.673,-19.704,-23.548,-7.745,-6.942,-10.241,-16.568,1.577,-8.931,-16.254,-4.645,4.175
2019.07.22 14:07:36.720,-21.606,-6.740,-19.171,-30.280,-19.587,-20.359,3.142,-9.963,-19.984,-23.770,-8.112,-7.867,-11.251,-15.993,0.381,-10.247,-17.051,-3.192,3.059
2019.07.22 14:07:36.724,-24.960,-7.452,-20.004,-30.745,-22.851,-21.713,1.298,-11.457,-20.025,-23.678,-8.875,-7.612,-12.689,-14.240,-3.404,-9.843,-17.211,-1.721,1.957
2019.07.22 14:07:36.728,-25.405,-7.716,-21.681,-30.993,-24.586,-22.505,-1.776,-12.714,-19.734,-23.720,-10.178,-7.200,-14.015,-12.604,-8.556,-10.651,-16.992,-0.728,1.121
2019.07.22 14:07:36.732,-23.627,-8.048,-23.577,-31.568,-24.678,-23.085,-5.463,-14.290,-19.303,-24.300,-11.646,-7.397,-14.749,-12.350,-12.909,-14.635,-16.759,-0.431,0.745
2019.07.22 14:07:36.736,-21.421,-8.756,-24.821,-32.852,-24.119,-24.023,-9.131,-16.301,-19.307,-25.531,-12.692,-8.050,-14.834,-13.661,-14.459,-20.269,-16.786,-0.627,0.891
2019.07.22 14:07:36.740,-20.622,-9.600,-24.971,-34.737,-24.344,-25.543,-12.473,-18.222,-20.403,-27.105,-12.954,-8.227,-14.626,-15.409,-12.617,-23.162,-17.085,-0.833,1.468
2019.07.22 14:07:36.744,-22.007,-9.881,-24.331,-36.608,-26.190,-27.173,-15.446,-19.080,-22.750,-28.351,-12.491,-7.043,-14.539,-15.976,-8.746,-19.660,-17.411,-0.648,2.255
2019.07.22 14:07:36.748,-24.850,-8.914,-23.671,-37.653,-29.227,-27.889,-17.906,-18.002,-25.612,-28.500,-11.613,-4.497,-14.634,-14.506,-5.430,-10.449,-17.473,-0.046,2.983
2019.07.22 14:07:36.752,-27.345,-6.492,-23.577,-37.278,-31.975,-26.669,-19.304,-14.781,-27.566,-27.078,-10.519,-1.575,-14.513,-11.584,-4.765,-0.834,-17.159,0.618,3.472
2019.07.22 14:07:36.756,-27.643,-3.000,-23.937,-35.357,-32.867,-23.081,-18.825,-10.081,-27.273,-24.179,-9.115,0.512,-13.602,-8.772,-6.764,3.004,-16.561,0.892,3.760
2019.07.22 14:07:36.760,-24.847,0.896,-23.945,-32.184,-31.262,-17.522,-15.934,-5.105,-24.312,-20.446,-7.148,1.340,-11.604,-7.320,-9.100,-1.009,-15.792,0.591,4.134
2019.07.22 14:07:36.764,-19.431,4.680,-22.622,-28.243,-27.785,-10.989,-10.932,-0.935,-19.473,-16.716,-4.542,1.688,-8.743,-7.089,-8.594,-8.764,-14.776,-0.075,4.978
2019.07.22 14:07:36.768,-12.911,8.192,-19.479,-24.002,-23.786,-4.603,-5.033,2.009,-14.242,-13.560,-1.607,2.925,-5.611,-6.592,-3.546,-12.829,-13.267,-0.697,6.507
2019.07.22 14:07:36.772,-7.064,11.467,-14.849,-19.865,-20.372,0.805,0.203,4.009,-9.851,-11.049,1.094,5.821,-2.735,-4.200,4.775,-8.290,-11.108,-1.007,8.523
2019.07.22 14:07:36.776,-3.172,14.418,-9.712,-16.208,-17.772,4.830,3.759,5.586,-6.588,-8.923,3.147,9.714,-0.200,0.377,12.706,3.019,-8.537,-1.082,10.422
2019.07.22 14:07:36.780,-1.659,16.683,-5.164,-13.383,-15.473,7.389,5.750,6.904,-3.858,-7.033,4.625,12.770,2.366,5.529,16.611,13.420,-6.229,-1.239,11.496
2019.07.22 14:07:36.784,-2.196,17.805,-1.937,-11.635,-12.941,8.559,7.271,7.533,-0.917,-5.661,6.060,13.212,5.407,8.629,15.433,14.980,-4.975,-1.741,11.384
2019.07.22 14:07:36.788,-4.097,17.563,-0.255,-10.987,-10.280,8.473,9.570,6.759,2.312,-5.399,8.030,10.626,8.952,7.778,11.456,5.557,-5.238,-2.593,10.370
2019.07.22 14:07:36.792,-6.702,16.141,-0.002,-11.250,-8.292,7.324,13.083,4.214,5.007,-6.646,10.653,6.346,12.386,3.144,8.611,-9.415,-6.892,-3.596,9.275
2019.07.22 14:07:36.796,-9.576,13.988,-0.983,-12.152,-7.888,5.373,17.006,0.327,5.976,-9.108,13.355,2.606,14.682,-3.117,9.529,-20.825,-9.357,-4.603,8.970
2019.07.22 14:07:36.800,-12.452,11.499,-3.023,-13.498,-9.371,2.934,19.687,-3.781,4.550,-11.789,15.112,1.051,14.984,-8.324,13.543,-22.512,-11.981,-5.686,9.817
2019.07.22 14:07:36.804,-15.070,8.831,-5.888,-15.198,-12.188,0.322,19.600,-6.902,1.146,-13.575,15.009,1.702,13.131,-11.050,17.163,-15.547,-14.351,-7.029,11.413
2019.07.22 14:07:36.808,-17.062,6.004,-9.192,-17.164,-15.380,-2.182,16.245,-8.418,-2.943,-14.023,12.722,3.094,9.759,-11.911,16.676,-7.020,-16.323,-8.625,12.834
2019.07.22 14:07:36.812,-18.053,3.154,-12.480,-19.197,-18.340,-4.366,10.406,-8.567,-6.388,-13.735,8.641,3.430,5.899,-12.833,10.864,-4.483,-17.842,-10.068,13.202
2019.07.22 14:07:36.816,-17.938,0.626,-15.452,-21.029,-21.266,-6.150,3.651,-8.145,-8.687,-13.970,3.572,1.867,2.322,-15.407,1.829,-10.402,-18.804,-10.689,12.210
2019.07.22 14:07:36.820,-17.157,-1.249,-18.135,-22.529,-24.885,-7.670,-2.551,-7.902,-10.429,-15.721,-1.689,-0.983,-0.883,-19.609,-6.645,-20.786,-19.144,-10.006,10.239
2019.07.22 14:07:36.824,-16.718,-2.512,-20.763,-23.867,-29.658,-9.323,-7.491,-8.110,-12.766,-18.939,-6.624,-3.623,-4.198,-23.837,-11.773,-28.675,-19.029,-8.132,8.055
2019.07.22 14:07:36.828,-17.799,-3.684,-23.425,-25.426,-35.077,-11.640,-11.277,-8.579,-16.481,-22.502,-10.951,-4.792,-8.088,-26.165,-13.431,-29.479,-18.896,-5.790,6.307
2019.07.22 14:07:36.832,-21.070,-5.431,-25.742,-27.437,-39.671,-14.978,-14.363,-9.024,-21.310,-24.987,-14.407,-4.265,-12.385,-25.793,-13.600,-23.992,-19.182,-3.893,5.214
2019.07.22 14:07:36.836,-26.115,-7.976,-26.923,-29.595,-41.794,-19.185,-16.965,-9.416,-25.980,-25.644,-16.613,-2.803,-16.131,-23.553,-14.282,-17.064,-19.907,-2.972,4.599
2019.07.22 14:07:36.840,-31.401,-10.759,-26.232,-31.020,-40.677,-23.467,-18.832,-9.983,-28.927,-24.837,-17.176,-1.406,-18.057,-21.127,-15.685,-13.386,-20.501,-2.906,4.187
2019.07.22 14:07:36.844,-34.922,-12.672,-23.572,-30.694,-36.977,-26.649,-19.474,-10.870,-29.191,-23.624,-15.943,-0.495,-17.392,-19.640,-16.143,-13.907,-20.102,-3.138,3.891
2019.07.22 14:07:36.848,-35.233,-12.751,-19.700,-28.126,-32.400,-27.715,-18.629,-11.790,-26.903,-22.821,-13.194,0.344,-14.404,-18.759,-13.669,-15.528,-18.181,-3.184,3.878
2019.07.22 14:07:36.852,-32.216,-10.800,-15.853,-23.760,-28.615,-26.315,-16.551,-12.012,-23.087,-22.322,-9.563,1.926,-10.263,-17.014,-7.726,-13.931,-15.006,-2.995,4.398
