Time,Fp1-CPz,Fp2-CPz,F3-CPz,F4-CPz,F7-CPz,F8-CPz,C3-CPz,C4-CPz,T7-CPz,T8-CPz,P3-CPz,P4-CPz,P7-CPz,P8-CPz,O1-CPz,O2-CPz,Fz-CPz,Cz-CPz,Pz-CPz
2019.07.22 14:05:07.941,-4.507,2.504,0.115,-2.878,-15.649,-5.422,-7.499,-13.451,-12.011,-17.104,-8.350,-12.369,-15.324,-16.006,-9.314,-14.890,1.784,7.793,-3.466
2019.07.22 14:05:07.945,-0.029,7.218,6.768,-2.760,-9.311,-1.071,-4.964,-12.736,-6.769,-14.938,-2.934,-7.989,-11.020,-13.136,-5.305,-1.627,2.530,6.361,-1.110
2019.07.22 14:05:07.949,4.547,11.700,11.946,-1.596,-3.735,3.818,-3.905,-11.185,-2.496,-12.474,1.248,-2.681,-6.392,-9.229,-0.930,11.369,3.340,5.133,1.201
2019.07.22 14:05:07.953,9.633,15.856,15.261,0.723,1.205,8.624,-4.043,-9.007,0.591,-9.802,3.173,1.770,-2.204,-5.185,3.262,19.409,4.950,4.520,2.978
2019.07.22 14:05:07.957,15.252,19.767,17.173,3.879,5.781,13.003,-4.502,-6.353,2.875,-6.484,3.231,4.488,1.177,-1.337,7.071,21.364,7.703,4.380,4.062
2019.07.22 14:05:07.961,20.630,23.217,18.447,7.281,9.765,16.675,-4.327,-3.385,4.782,-2.254,2.796,5.812,3.680,2.272,10.317,19.643,11.175,4.207,4.723
2019.07.22 14:05:07.965,24.402,25.500,19.517,10.234,12.356,19.173,-3.002,-0.397,6.389,2.356,3.232,6.708,5.324,5.407,12.654,17.867,14.266,3.557,5.456
2019.07.22 14:05:07.969,25.405,25.735,20.213,12.085,12.829,19.873,-0.696,2.191,7.497,6.076,5.024,7.811,6.144,7.449,13.720,18.107,15.763,2.357,6.574
2019.07.22 14:05:07.973,23.545,23.539,19.980,12.398,11.373,18.420,1.876,3.989,7.997,7.655,7.585,8.906,6.271,7.693,13.454,19.712,15.002,0.913,7.924
2019.07.22 14:05:07.977,20.065,19.535,18.362,11.140,9.338,15.183,3.856,4.863,8.128,6.751,9.817,9.214,6.035,5.900,12.270,20.312,12.208,-0.364,8.977
2019.07.22 14:05:07.981,16.848,15.211,15.327,8.755,8.515,11.272,4.664,5.017,8.317,4.237,10.945,8.191,5.899,2.614,10.889,17.993,8.266,-1.284,9.270
2019.07.22 14:05:07.985,15.131,12.085,11.218,5.986,9.838,7.956,4.196,4.857,8.716,1.650,11.014,6.136,6.192,-1.054,9.928,12.886,4.095,-2.012,8.874
2019.07.22 14:05:07.989,14.529,10.700,6.420,3.479,12.477,5.838,2.706,4.722,8.845,0.191,10.709,4.092,6.834,-4.012,9.560,7.103,0.089,-2.913,8.453
2019.07.22 14:05:07.993,13.185,10.186,1.125,1.374,14.111,4.462,0.527,4.660,7.757,0.032,10.690,3.124,7.289,-5.710,9.491,3.262,-3.983,-4.242,8.805
2019.07.22 14:05:07.997,9.110,8.814,-4.588,-0.762,12.355,2.744,-2.163,4.432,4.681,0.414,10.973,3.551,6.851,-6.228,9.242,2.815,-8.547,-5.895,10.186
2019.07.22 14:05:08.001,1.834,5.249,-10.435,-3.568,6.443,-0.046,-5.363,3.724,-0.299,0.382,10.833,4.747,5.091,-5.939,8.471,5.318,-13.618,-7.384,11.939
2019.07.22 14:05:08.005,-6.867,-0.364,-15.732,-7.281,-2.056,-3.510,-9.044,2.417,-6.085,-0.444,9.270,5.620,2.122,-5.097,7.084,8.929,-18.521,-8.074,12.806
2019.07.22 14:05:08.009,-13.851,-6.307,-19.603,-11.366,-10.051,-6.274,-12.935,0.701,-11.133,-1.679,5.697,5.394,-1.518,-3.739,5.065,11.562,-22.191,-7.520,11.744
2019.07.22 14:05:08.013,-16.615,-10.362,-21.519,-14.716,-14.810,-7.040,-16.481,-1.029,-14.374,-2.641,0.360,4.087,-5.270,-1.933,2.280,11.849,-23.869,-5.717,8.684
2019.07.22 14:05:08.017,-15.043,-11.350,-21.765,-16.367,-15.609,-5.787,-19.062,-2.436,-15.834,-3.027,-5.755,2.370,-8.900,-0.099,-1.494,9.485,-23.691,-3.140,4.667
2019.07.22 14:05:08.021,-11.573,-10.063,-21.392,-16.249,-14.012,-4.138,-20.334,-3.458,-16.467,-3.224,-11.398,0.993,-12.468,0.992,-6.218,5.061,-22.721,-0.564,1.234
2019.07.22 14:05:08.025,-9.551,-8.861,-21.580,-15.391,-12.570,-4.481,-20.439,-4.343,-17.308,-3.990,-15.537,0.249,-15.907,0.656,-11.179,-0.229,-22.354,1.227,-0.490
2019.07.22 14:05:08.029,-10.907,-10.157,-22.808,-15.367,-12.876,-8.382,-19.904,-5.476,-18.570,-5.804,-17.591,-0.135,-18.590,-1.116,-14.922,-4.841,-23.460,1.714,-0.368
2019.07.22 14:05:08.033,-14.790,-14.799,-24.431,-17.290,-14.369,-15.417,-19.256,-7.106,-19.372,-8.406,-17.383,-0.667,-19.337,-3.405,-15.750,-7.202,-25.852,0.788,0.884
2019.07.22 14:05:08.037,-18.185,-21.452,-25.002,-21.036,-14.735,-23.287,-18.629,-9.158,-18.326,-10.907,-15.019,-1.638,-17.019,-4.712,-12.621,-6.212,-28.390,-1.249,2.358
2019.07.22 14:05:08.041,-18.071,-27.415,-23.180,-25.239,-11.629,-29.188,-17.643,-11.228,-14.590,-12.372,-10.856,-2.911,-11.407,-3.769,-5.888,-1.822,-29.679,-3.815,3.589
2019.07.22 14:05:08.045,-13.562,-30.307,-18.635,-28.093,-4.463,-31.506,-15.686,-12.782,-8.614,-12.433,-5.551,-4.049,-3.642,-0.282,2.670,4.730,-28.904,-6.260,4.687
2019.07.22 14:05:08.049,-6.520,-29.508,-12.380,-28.443,4.996,-30.675,-12.412,-13.430,-2.039,-11.489,-0.024,-4.634,4.128,4.862,10.641,11.350,-26.315,-8.103,5.981
2019.07.22 14:05:08.053,-0.278,-26.424,-6.336,-26.466,13.634,-28.703,-8.107,-13.126,3.209,-10.402,4.791,-4.481,9.811,10.090,16.191,16.095,-23.125,-9.206,7.545
2019.07.22 14:05:08.057,2.533,-23.509,-2.420,-23.540,18.869,-27.780,-3.633,-12.171,6.007,-9.945,8.299,-3.634,12.470,13.989,18.917,18.162,-20.906,-9.824,9.062
2019.07.22 14:05:08.061,1.450,-22.743,-1.695,-21.407,20.081,-28.972,0.018,-11.022,6.573,-10.390,10.463,-2.211,12.704,15.976,19.804,18.221,-20.846,-10.463,10.111
2019.07.22 14:05:08.065,-1.965,-24.586,-3.998,-21.206,18.670,-31.843,2.271,-10.011,6.132,-11.474,11.679,-0.301,12.042,16.427,20.309,17.831,-23.208,-11.594,10.560
2019.07.22 14:05:08.069,-5.554,-27.973,-8.131,-22.933,16.810,-35.070,3.218,-9.160,5.987,-12.670,12.388,2.014,11.797,16.252,21.235,18.358,-27.221,-13.345,10.679
2019.07.22 14:05:08.073,-8.058,-31.195,-12.430,-25.602,15.888,-37.447,3.411,-8.221,6.669,-13.528,12.713,4.532,12.210,16.261,22.196,20.133,-31.405,-15.359,10.839
2019.07.22 14:05:08.077,-9.582,-32.989,-15.405,-27.899,15.738,-38.548,3.390,-6.917,7.720,-13.878,12.443,6.878,12.506,16.730,22.057,22.398,-34.191,-16.943,11.100
2019.07.22 14:05:08.081,-10.894,-33.139,-16.256,-28.889,15.135,-38.685,3.311,-5.239,8.188,-13.843,11.368,8.595,11.750,17.350,20.000,23.967,-34.570,-17.450,11.080
2019.07.22 14:05:08.085,-12.380,-32.330,-15.105,-28.385,13.030,-38.420,2.943,-3.545,7.404,-13.739,9.679,9.332,9.800,17.507,16.391,24.023,-32.509,-16.682,10.280
2019.07.22 14:05:08.089,-13.609,-31.513,-12.913,-26.839,9.522,-38.101,1.997,-2.390,5.444,-13.935,8.053,9.002,7.563,16.640,12.738,22.455,-28.942,-15.046,8.594
2019.07.22 14:05:08.093,-13.832,-31.264,-11.067,-24.937,5.825,-37.764,0.448,-2.160,2.975,-14.718,7.269,7.796,6.337,14.492,10.719,19.590,-25.310,-13.334,6.537
2019.07.22 14:05:08.097,-12.865,-31.533,-10.774,-23.192,3.316,-37.321,-1.428,-2.783,0.653,-16.145,7.621,6.094,6.763,11.206,10.989,15.738,-22.874,-12.237,4.954
2019.07.22 14:05:08.101,-11.506,-31.851,-12.507,-21.779,2.433,-36.770,-3.350,-3.755,-1.414,-17.947,8.618,4.345,8.256,7.296,12.681,11.079,-22.154,-11.922,4.404
2019.07.22 14:05:08.105,-11.068,-31.766,-15.801,-20.658,2.290,-36.211,-5.341,-4.498,-3.731,-19.553,9.238,2.984,9.376,3.556,14.017,6.042,-22.806,-11.940,4.729
2019.07.22 14:05:08.109,-12.425,-31.216,-19.532,-19.843,1.301,-35.732,-7.720,-4.806,-6.933,-20.309,8.618,2.384,8.906,0.878,13.602,1.746,-23.984,-11.550,5.172
2019.07.22 14:05:08.113,-15.357,-30.609,-22.518,-19.582,-1.672,-35.359,-10.699,-5.034,-11.147,-19.818,6.658,2.761,6.759,-0.048,11.434,-0.115,-24.917,-10.224,4.967
2019.07.22 14:05:08.117,-18.716,-30.584,-24.058,-20.292,-6.473,-35.151,-13.920,-5.843,-15.692,-18.207,4.081,4.036,4.018,0.916,8.827,1.791,-25.318,-8.000,3.914
2019.07.22 14:05:08.121,-21.240,-31.601,-24.089,-22.266,-11.718,-35.328,-16.366,-7.665,-19.366,-16.144,1.906,5.744,2.069,3.148,7.317,7.189,-25.365,-5.434,2.478
2019.07.22 14:05:08.125,-22.327,-33.586,-22.942,-25.328,-15.667,-36.210,-16.877,-10.262,-21.141,-14.537,0.751,7.109,1.544,5.392,7.382,13.626,-25.345,-3.240,1.342
2019.07.22 14:05:08.129,-22.204,-35.856,-20.959,-28.692,-17.264,-37.924,-14.961,-12.760,-20.776,-14.086,0.516,7.347,1.919,6.270,8.000,17.289,-25.294,-1.883,0.821
2019.07.22 14:05:08.133,-21.466,-37.396,-18.353,-31.186,-16.632,-40.065,-11.299,-14.161,-18.936,-14.942,0.667,6.050,2.083,4.983,7.418,15.002,-24.939,-1.424,0.638
2019.07.22 14:05:08.137,-20.478,-37.361,-15.375,-31.761,-14.769,-41.657,-7.501,-13.992,-16.732,-16.653,0.855,3.451,1.380,1.791,4.560,6.259,-23.978,-1.672,0.254
2019.07.22 14:05:08.141,-19.153,-35.520,-12.573,-30.000,-12.755,-41.532,-5.182,-12.599,-15.036,-18.388,1.296,0.367,0.223,-2.044,-0.030,-6.104,-22.430,-2.458,-0.576
2019.07.22 14:05:08.145,-17.214,-32.355,-10.762,-26.315,-11.089,-38.946,-4.989,-10.851,-14.020,-19.278,2.577,-2.170,-0.242,-4.887,-4.456,-17.189,-20.714,-3.764,-1.494
2019.07.22 14:05:08.149,-14.601,-28.746,-10.589,-21.702,-9.576,-34.017,-6.275,-9.461,-13.215,-18.683,5.040,-3.357,0.845,-5.581,-6.775,-22.623,-19.368,-5.599,-1.795
2019.07.22 14:05:08.153,-11.610,-25.440,-11.984,-17.190,-7.737,-27.684,-7.664,-8.427,-11.952,-16.319,8.284,-2.905,3.235,-4.018,-6.326,-20.859,-18.636,-7.761,-1.004
2019.07.22 14:05:08.157,-8.671,-22.674,-13.974,-13.362,-5.346,-21.223,-8.085,-7.052,-9.834,-12.290,11.266,-1.013,5.672,-1.078,-4.079,-13.755,-18.280,-9.768,0.704
2019.07.22 14:05:08.161,-6.033,-20.211,-15.145,-10.217,-2.679,-15.668,-7.501,-4.535,-6.889,-7.115,12.960,1.885,6.888,1.998,-1.756,-5.133,-17.803,-11.056,2.624
2019.07.22 14:05:08.165,-3.694,-17.736,-14.521,-7.448,-0.335,-11.515,-6.811,-0.698,-3.392,-1.702,13.085,5.361,6.681,4.366,-0.435,1.657,-16.907,-11.363,4.067
2019.07.22 14:05:08.169,-1.628,-15.278,-12.246,-4.854,1.169,-8.830,-7.033,3.714,0.394,2.795,12.276,9.070,6.139,5.967,0.239,5.509,-15.786,-10.950,4.871
2019.07.22 14:05:08.173,-0.035,-13.301,-9.534,-2.588,1.685,-7.534,-8.447,7.421,4.268,5.326,11.552,12.654,6.759,7.325,1.638,7.607,-14.999,-10.475,5.448
2019.07.22 14:05:08.177,0.681,-12.368,-7.898,-1.064,1.429,-7.584,-10.350,9.413,7.879,5.397,11.471,15.655,9.113,8.952,4.870,9.923,-15.025,-10.560,6.314
2019.07.22 14:05:08.181,0.234,-12.678,-8.185,-0.642,0.744,-8.881,-11.605,9.592,10.511,3.375,11.659,17.587,12.157,10.856,9.678,13.425,-15.877,-11.367,7.549
2019.07.22 14:05:08.185,-1.246,-13.859,-10.134,-1.371,-0.146,-11.082,-11.512,8.763,11.186,0.402,11.112,18.185,13.799,12.495,14.392,17.325,-17.125,-12.506,8.643
2019.07.22 14:05:08.189,-3.265,-15.242,-12.720,-2.986,-1.186,-13.552,-10.317,7.997,9.174,-2.109,9.025,17.643,12.377,13.206,16.970,19.819,-18.309,-13.337,8.886
2019.07.22 14:05:08.193,-5.361,-16.375,-14.960,-5.116,-2.376,-15.581,-8.993,7.844,4.611,-3.165,5.503,16.608,7.932,12.735,16.351,19.612,-19.358,-13.418,7.977
2019.07.22 14:05:08.197,-7.483,-17.359,-16.519,-7.487,-3.632,-16.723,-8.501,7.980,-1.268,-2.639,1.575,15.871,2.316,11.439,13.111,16.977,-20.629,-12.750,6.325
2019.07.22 14:05:08.201,-9.931,-18.664,-17.665,-9.938,-4.770,-16.986,-9.129,7.540,-6.581,-1.219,-1.507,15.907,-1.998,10.013,9.005,13.565,-22.470,-11.645,4.793
2019.07.22 14:05:08.205,-12.837,-20.569,-18.716,-12.263,-5.623,-16.701,-10.389,5.843,-9.734,0.098,-3.124,16.578,-3.510,8.966,5.807,11.176,-24.697,-10.359,4.072
2019.07.22 14:05:08.209,-15.624,-22.686,-19.527,-14.094,-6.163,-16.197,-11.462,2.955,-10.275,0.597,-3.659,17.205,-2.552,8.257,4.303,10.492,-26.455,-8.836,4.192
2019.07.22 14:05:08.213,-17.018,-24.033,-19.525,-15.005,-6.502,-15.573,-11.791,-0.333,-9.057,0.130,-4.095,16.989,-0.845,7.368,4.096,10.752,-26.685,-6.799,4.542
2019.07.22 14:05:08.217,-15.771,-23.667,-18.238,-14.778,-6.751,-14.739,-11.338,-3.051,-7.588,-1.067,-5.223,15.488,-0.174,5.728,4.171,10.532,-24.864,-4.109,4.348
2019.07.22 14:05:08.221,-11.633,-21.425,-15.834,-13.609,-6.854,-13.670,-10.406,-4.679,-7.008,-2.794,-7.080,12.836,-1.216,3.146,3.682,8.937,-21.450,-1.082,3.234
2019.07.22 14:05:08.225,-5.824,-18.142,-13.096,-11.992,-6.543,-12.570,-9.271,-5.359,-7.390,-5.126,-9.016,9.596,-3.319,-0.088,2.372,6.263,-17.607,1.555,1.419
2019.07.22 14:05:08.229,-0.524,-15.141,-10.806,-10.321,-5.483,-11.730,-7.987,-5.573,-7.842,-8.230,-10.273,6.378,-5.251,-3.434,0.479,3.642,-14.390,3.074,-0.517
2019.07.22 14:05:08.233,2.345,-13.310,-9.015,-8.512,-3.506,-11.166,-6.500,-5.591,-7.278,-11.874,-10.540,3.541,-6.174,-6.438,-1.605,2.050,-11.998,3.230,-2.060
2019.07.22 14:05:08.237,2.252,-12.472,-6.897,-5.989,-0.760,-10.363,-4.891,-5.185,-5.260,-15.104,-10.036,1.174,-6.075,-8.866,-3.540,1.535,-9.695,2.442,-3.011
2019.07.22 14:05:08.241,0.323,-11.543,-3.391,-2.147,2.338,-8.475,-3.456,-3.852,-2.279,-16.478,-9.122,-0.679,-5.420,-10.561,-5.012,1.301,-6.488,1.501,-3.409
2019.07.22 14:05:08.245,-1.417,-9.368,1.792,3.038,5.334,-4.914,-2.524,-1.351,0.691,-14.860,-7.857,-1.813,-4.468,-11.256,-5.634,0.553,-2.059,1.022,-3.285
2019.07.22 14:05:08.249,-1.254,-5.612,7.623,8.736,7.995,0.051,-2.182,1.899,2.977,-10.286,-5.923,-1.875,-2.947,-10.571,-5.012,-0.603,2.782,1.023,-2.534
2019.07.22 14:05:08.253,1.345,-1.030,12.184,13.622,10.430,5.229,-2.187,4.963,4.698,-4.219,-3.008,-0.626,-0.353,-8.288,-2.976,-0.992,6.502,0.962,-1.022
2019.07.22 14:05:08.257,5.688,3.082,13.843,16.688,12.986,9.136,-2.169,6.990,6.574,1.107,0.717,1.783,3.414,-4.641,0.235,0.865,7.822,0.177,1.169
2019.07.22 14:05:08.261,10.484,5.819,12.362,17.915,15.992,10.966,-1.938,7.852,9.231,3.939,4.479,4.788,7.702,-0.339,4.043,5.571,6.563,-1.586,3.640
2019.07.22 14:05:08.265,14.580,7.253,9.100,18.307,19.478,11.190,-1.611,8.284,12.566,4.034,7.311,7.700,11.380,3.789,7.826,12.114,3.739,-3.952,5.836
2019.07.22 14:05:08.269,17.328,8.240,6.153,19.171,23.049,11.274,-1.436,9.389,15.678,2.724,8.686,10.119,13.540,7.271,11.174,18.157,0.868,-6.144,7.369
2019.07.22 14:05:08.273,18.533,9.623,5.017,21.152,25.980,12.612,-1.469,11.816,17.447,1.913,8.879,12.131,14.056,10.176,13.899,21.260,-0.998,-7.479,8.233
2019.07.22 14:05:08.277,18.226,11.462,5.727,23.693,27.485,15.389,-1.435,15.209,17.333,2.691,8.761,14.137,13.562,12.826,15.838,20.288,-1.820,-7.784,8.756
2019.07.22 14:05:08.281,16.571,12.904,7.034,25.338,27.053,18.214,-0.902,18.334,15.794,4.541,9.175,16.418,12.916,15.266,16.713,16.150,-2.377,-7.450,9.315
2019.07.22 14:05:08.285,13.904,12.778,7.421,24.682,24.699,18.885,0.364,19.819,14.033,5.759,10.377,18.804,12.604,16.961,16.276,11.359,-3.542,-7.120,10.064
2019.07.22 14:05:08.289,10.761,10.484,6.193,21.321,21.009,15.845,2.192,18.995,13.228,4.790,11.922,20.698,12.533,17.080,14.632,8.650,-5.601,-7.245,10.849
2019.07.22 14:05:08.293,7.724,6.508,3.886,16.144,16.954,9.344,4.138,16.269,13.807,1.514,13.032,21.457,12.304,15.180,12.409,9.419,-8.074,-7.796,11.335
2019.07.22 14:05:08.297,5.186,2.197,1.799,10.790,13.556,1.501,5.845,12.792,15.220,-2.498,13.117,20.809,11.627,11.758,10.475,12.876,-10.093,-8.302,11.202
2019.07.22 14:05:08.301,3.244,-1.019,1.082,6.666,11.536,-4.845,7.286,9.672,16.358,-5.000,12.061,18.983,10.511,8.122,9.327,16.426,-10.981,-8.149,10.257
2019.07.22 14:05:08.305,1.834,-2.429,2.054,4.191,11.111,-7.746,8.687,7.307,16.286,-4.661,10.139,16.450,9.122,5.572,8.642,17.108,-10.630,-6.950,8.448
2019.07.22 14:05:08.309,0.980,-2.345,4.159,2.738,12.005,-7.161,10.193,5.270,14.815,-2.062,7.759,13.521,7.532,4.461,7.439,13.294,-9.478,-4.760,5.846
2019.07.22 14:05:08.313,0.852,-1.783,6.462,1.239,13.630,-4.757,11.628,2.772,12.579,0.614,5.277,10.168,5.676,3.879,4.837,5.705,-8.182,-2.050,2.678
2019.07.22 14:05:08.317,1.513,-1.819,8.212,-1.027,15.316,-2.699,12.601,-0.656,10.609,1.014,3.026,6.236,3.571,2.295,0.861,-2.913,-7.288,0.518,-0.627
2019.07.22 14:05:08.321,2.553,-3.057,9.104,-4.008,16.454,-2.317,12.864,-4.773,9.697,-1.862,1.393,1.853,1.552,-1.272,-3.376,-9.270,-7.064,2.372,-3.497
2019.07.22 14:05:08.325,2.993,-5.501,9.149,-7.030,16.544,-3.546,12.576,-8.769,9.957,-7.096,0.784,-2.342,0.231,-6.399,-6.335,-11.349,-7.521,3.219,-5.409
2019.07.22 14:05:08.329,1.717,-8.776,8.414,-9.359,15.216,-5.389,12.174,-11.785,10.794,-12.570,1.392,-5.422,0.116,-11.399,-7.098,-9.460,-8.505,3.067,-6.123
2019.07.22 14:05:08.333,-1.790,-12.434,6.919,-10.695,12.340,-6.908,11.900,-13.410,11.293,-16.358,2.983,-6.722,1.200,-14.385,-5.987,-5.896,-9.748,2.123,-5.789
2019.07.22 14:05:08.337,-6.904,-16.095,4.781,-11.282,8.208,-7.888,11.457,-13.812,10.777,-17.755,4.919,-6.290,2.879,-14.490,-4.270,-3.431,-10.899,0.648,-4.812
2019.07.22 14:05:08.341,-12.013,-19.371,2.419,-11.594,3.661,-8.702,10.149,-13.451,9.227,-17.280,6.480,-4.852,4.326,-12.360,-3.188,-3.611,-11.581,-1.112,-3.589
2019.07.22 14:05:08.345,-15.326,-21.743,0.572,-11.889,-0.056,-9.590,7.534,-12.642,7.325,-15.847,7.282,-3.272,5.054,-9.582,-3.080,-5.922,-11.502,-2.901,-2.319
2019.07.22 14:05:08.349,-15.835,-22.600,0.026,-11.978,-1.760,-10.076,4.043,-11.335,6.082,-13.896,7.466,-1.922,5.211,-7.514,-3.292,-8.299,-10.575,-4.404,-1.030
2019.07.22 14:05:08.353,-13.785,-21.498,1.194,-11.387,-0.943,-9.124,0.987,-9.253,6.252,-11.230,7.527,-0.462,5.370,-6.409,-2.865,-8.547,-8.968,-5.270,0.238
2019.07.22 14:05:08.357,-10.362,-18.482,3.806,-9.748,1.841,-5.984,-0.202,-6.267,7.849,-7.616,7.914,1.777,6.004,-5.465,-1.387,-5.702,-7.039,-5.261,1.305
2019.07.22 14:05:08.361,-6.885,-14.248,6.958,-7.141,5.133,-1.045,0.992,-2.686,10.090,-3.517,8.722,5.086,7.063,-3.676,0.730,-0.492,-5.206,-4.446,1.937
2019.07.22 14:05:08.365,-4.106,-9.957,9.490,-4.104,7.283,4.062,3.677,0.784,11.809,-0.207,9.697,8.938,8.020,-0.789,2.716,5.244,-3.814,-3.276,2.084
2019.07.22 14:05:08.369,-2.081,-6.768,10.521,-1.323,7.337,7.308,6.051,3.399,12.135,0.941,10.485,12.173,8.303,2.394,4.154,9.623,-3.061,-2.429,2.018
2019.07.22 14:05:08.373,-0.570,-5.347,9.848,0.773,5.559,7.515,6.608,4.802,11.014,-0.531,10.890,13.728,7.743,4.568,5.250,11.548,-2.991,-2.454,2.195
2019.07.22 14:05:08.377,0.452,-5.637,8.009,2.212,3.209,5.085,5.162,5.199,9.228,-3.673,10.900,13.344,6.655,4.860,6.406,10.889,-3.512,-3.445,2.884
2019.07.22 14:05:08.381,0.634,-7.032,5.983,3.338,1.714,1.671,2.912,5.194,7.882,-6.629,10.526,11.714,5.525,3.419,7.510,8.200,-4.430,-4.965,3.881
2019.07.22 14:05:08.385,-0.467,-8.801,4.698,4.458,1.760,-0.976,1.479,5.395,7.672,-7.804,9.654,9.964,4.586,1.256,7.682,4.364,-5.499,-6.310,4.575
2019.07.22 14:05:08.389,-2.928,-10.492,4.597,5.558,2.904,-2.100,1.686,6.086,8.404,-6.835,8.107,8.844,3.666,-0.507,5.811,0.394,-6.474,-6.937,4.367
2019.07.22 14:05:08.393,-6.241,-12.039,5.499,6.333,3.967,-2.194,3.000,7.168,9.105,-4.686,5.872,8.249,2.388,-1.371,1.511,-2.696,-7.158,-6.744,3.118
2019.07.22 14:05:08.397,-9.505,-13.566,6.817,6.489,3.897,-2.302,4.076,8.359,8.638,-2.804,3.272,7.408,0.534,-1.670,-4.338,-4.185,-7.398,-6.020,1.255
2019.07.22 14:05:08.401,-11.876,-15.084,7.985,6.058,2.472,-3.012,3.932,9.434,6.413,-2.050,0.860,5.564,-1.787,-2.179,-9.967,-4.064,-7.071,-5.100,-0.582
2019.07.22 14:05:08.405,-12.960,-16.383,8.800,5.429,0.353,-4.003,2.782,10.315,2.737,-2.191,-0.910,2.609,-4.273,-3.489,-13.814,-3.216,-6.098,-4.049,-2.041
2019.07.22 14:05:08.409,-12.909,-17.222,9.452,5.022,-1.527,-4.471,1.870,10.944,-1.408,-2.299,-1.987,-0.804,-6.706,-5.621,-15.502,-3.019,-4.542,-2.641,-3.285
2019.07.22 14:05:08.413,-12.267,-17.660,10.196,4.843,-2.728,-4.023,2.407,11.112,-4.972,-1.648,-2.737,-3.704,-9.098,-8.097,-15.940,-4.453,-2.739,-0.661,-4.737
2019.07.22 14:05:08.417,-11.694,-18.194,10.926,4.320,-3.632,-3.204,4.486,10.450,-7.408,-0.344,-3.632,-5.446,-11.565,-10.318,-16.525,-7.311,-1.317,1.715,-6.555
2019.07.22 14:05:08.421,-11.743,-19.514,11.016,2.617,-5.074,-3.146,6.829,8.657,-8.846,0.790,-4.887,-6.050,-14.087,-11.919,-18.104,-10.214,-1.008,3.841,-8.348
2019.07.22 14:05:08.425,-12.706,-21.978,9.626,-0.707,-7.588,-4.601,7.577,5.821,-9.841,0.955,-6.346,-6.042,-16.410,-12.865,-20.499,-11.581,-2.249,4.928,-9.419
2019.07.22 14:05:08.429,-14.528,-25.203,6.329,-5.199,-10.884,-7.183,5.542,2.559,-10.913,0.091,-7.688,-5.969,-18.192,-13.303,-22.873,-10.885,-4.841,4.579,-9.366
2019.07.22 14:05:08.433,-16.800,-28.121,1.620,-9.561,-13.965,-9.493,0.995,-0.194,-12.226,-1.022,-8.755,-5.997,-19.255,-13.358,-24.484,-9.182,-7.904,3.097,-8.524
2019.07.22 14:05:08.437,-18.902,-29.540,-3.120,-12.323,-15.819,-10.091,-4.537,-1.678,-13.555,-1.349,-9.643,-5.861,-19.678,-13.045,-25.136,-8.378,-10.262,1.322,-7.800
2019.07.22 14:05:08.441,-20.308,-28.830,-6.280,-12.681,-16.125,-8.553,-9.242,-1.743,-14.484,-0.392,-10.481,-5.158,-19.614,-12.314,-25.004,-9.679,-11.060,0.074,-7.966
2019.07.22 14:05:08.445,-20.884,-26.247,-6.920,-10.924,-15.416,-5.736,-12.019,-0.917,-14.636,1.439,-11.092,-3.685,-19.020,-11.147,-24.146,-12.436,-10.201,-0.365,-8.968
2019.07.22 14:05:08.449,-20.944,-22.656,-5.308,-8.148,-14.568,-3.042,-12.842,-0.027,-13.795,3.163,-10.920,-1.568,-17.586,-9.598,-22.288,-14.388,-8.311,-0.345,-9.849
2019.07.22 14:05:08.453,-20.946,-18.896,-2.714,-5.456,-14.027,-1.268,-12.376,0.395,-11.913,3.983,-9.382,0.867,-14.992,-7.772,-19.152,-13.226,-6.247,-0.463,-9.408
2019.07.22 14:05:08.457,-21.008,-15.299,-0.589,-3.270,-13.417,-0.007,-11.304,0.478,-9.107,3.875,-6.404,3.319,-11.313,-5.790,-14.994,-8.349,-4.527,-1.024,-7.127
2019.07.22 14:05:08.461,-20.648,-11.760,0.301,-1.243,-11.861,1.888,-9.911,0.895,-5.693,3.569,-2.681,5.629,-7.191,-3.781,-10.741,-1.425,-3.106,-1.797,-3.619
2019.07.22 14:05:08.465,-19.041,-8.252,0.198,1.216,-8.791,5.158,-8.153,2.306,-2.206,3.953,0.628,7.725,-3.561,-1.900,-7.457,4.695,-1.655,-2.253,-0.232
2019.07.22 14:05:08.469,-15.720,-5.279,-0.053,4.270,-4.605,9.268,-6.006,4.771,0.694,5.350,2.628,9.490,-1.106,-0.318,-5.540,7.910,-0.062,-2.066,1.891
2019.07.22 14:05:08.473,-11.206,-3.774,0.227,7.425,-0.617,12.593,-3.689,7.561,2.450,7.217,3.283,10.728,0.147,0.811,-4.369,8.148,1.301,-1.439,2.565
2019.07.22 14:05:08.477,-7.011,-4.405,1.025,9.934,1.694,13.578,-1.591,9.533,2.863,8.456,3.412,11.260,0.754,1.388,-2.821,7.085,1.825,-0.970,2.553
2019.07.22 14:05:08.481,-4.848,-6.820,1.735,11.453,1.626,11.973,-0.019,9.824,2.188,8.120,4.046,11.082,1.363,1.381,-0.273,6.619,1.229,-1.159,2.845
2019.07.22 14:05:08.485,-5.533,-9.513,1.762,12.358,-0.302,9.171,0.929,8.386,0.961,6.029,5.621,10.424,2.203,0.812,2.757,7.423,-0.035,-1.976,3.843
2019.07.22 14:05:08.489,-8.323,-10.581,1.100,13.383,-2.718,7.307,1.238,5.984,-0.332,2.909,7.612,9.658,2.982,-0.242,4.948,8.699,-0.939,-2.847,5.121
2019.07.22 14:05:08.493,-11.258,-8.937,0.404,14.844,-4.294,7.780,0.776,3.652,-1.538,-0.029,8.908,9.103,3.229,-1.629,5.260,9.173,-0.563,-3.082,5.884
2019.07.22 14:05:08.497,-12.337,-5.139,0.490,16.128,-4.525,10.268,-0.716,2.006,-2.849,-1.777,8.600,8.844,2.774,-3.150,3.849,8.298,1.214,-2.393,5.705
2019.07.22 14:05:08.501,-10.740,-1.151,1.671,15.961,-3.868,12.967,-3.328,0.892,-4.545,-2.067,6.626,8.683,1.925,-4.662,1.987,6.512,3.564,-1.088,4.856
2019.07.22 14:05:08.505,-7.269,0.852,3.441,13.374,-3.243,13.860,-6.609,-0.382,-6.658,-1.454,3.787,8.223,1.203,-6.271,0.997,4.384,5.254,0.195,3.984
2019.07.22 14:05:08.509,-3.691,-0.121,4.769,8.658,-3.320,12.091,-9.495,-2.410,-8.831,-0.925,1.201,7.032,0.903,-8.419,1.110,1.601,5.507,0.982,3.455
2019.07.22 14:05:08.513,-1.514,-3.254,4.770,3.558,-4.141,8.504,-10.759,-5.124,-10.494,-1.301,-0.369,4.834,0.877,-11.736,1.249,-3.017,4.518,1.279,2.973
2019.07.22 14:05:08.517,-1.068,-6.449,3.245,0.430,-5.283,5.052,-9.769,-7.709,-11.239,-2.784,-0.834,1.658,0.712,-16.600,-0.017,-10.209,3.237,1.458,1.848
2019.07.22 14:05:08.521,-1.555,-7.642,0.738,0.887,-6.330,3.559,-7.033,-9.083,-11.132,-4.919,-0.622,-2.099,0.119,-22.672,-3.159,-18.755,2.610,1.875,-0.334
2019.07.22 14:05:08.525,-1.940,-5.999,-1.886,4.824,-7.231,4.713,-4.099,-8.603,-10.722,-6.946,-0.295,-5.764,-0.884,-28.759,-7.176,-25.320,2.864,2.541,-3.235
2019.07.22 14:05:08.529,-1.943,-2.271,-3.976,10.486,-8.283,7.846,-2.754,-6.505,-10.727,-8.307,-0.289,-8.638,-2.152,-33.254,-10.403,-26.288,3.408,3.140,-5.926
2019.07.22 14:05:08.533,-2.313,1.795,-5.357,15.490,-9.823,11.497,-4.000,-3.784,-11.613,-8.930,-0.892,-10.333,-3.757,-34.987,-11.990,-20.528,3.390,3.347,-7.577
2019.07.22 14:05:08.537,-4.159,4.496,-6.216,18.119,-11.938,14.261,-7.447,-1.586,-13.337,-9.142,-2.328,-11.003,-6.085,-33.996,-12.744,-10.964,2.454,3.146,-8.089
2019.07.22 14:05:08.541,-7.854,4.983,-6.776,18.072,-14.430,15.391,-11.526,-0.539,-15.403,-9.272,-4.690,-11.297,-9.484,-31.631,-14.522,-3.393,1.091,2.853,-8.123
2019.07.22 14:05:08.545,-12.382,3.458,-7.083,16.309,-16.996,14.943,-14.389,-0.450,-17.168,-9.303,-7.726,-11.986,-13.721,-29.851,-18.575,-2.978,0.319,2.840,-8.494
2019.07.22 14:05:08.549,-15.708,0.857,-7.046,14.283,-19.377,13.553,-14.937,-0.541,-18.170,-8.853,-10.706,-13.476,-17.756,-30.088,-24.201,-10.718,0.961,3.197,-9.447
2019.07.22 14:05:08.553,-15.974,-1.663,-6.622,13.138,-21.325,12.087,-13.341,-0.033,-18.263,-7.541,-12.609,-15.509,-20.156,-32.406,-28.922,-22.476,3.072,3.643,-10.444
2019.07.22 14:05:08.557,-12.719,-3.133,-5.960,13.325,-22.440,11.301,-10.783,1.328,-17.527,-5.448,-12.637,-17.293,-19.949,-35.533,-30.179,-31.442,5.928,3.754,-10.628
2019.07.22 14:05:08.561,-7.267,-3.024,-5.341,14.675,-22.162,11.576,-8.636,3.140,-16.090,-3.260,-10.712,-18.018,-17.282,-37.747,-27.251,-32.486,8.516,3.309,-9.592
2019.07.22 14:05:08.565,-1.984,-1.385,-4.994,16.668,-20.067,12.777,-7.641,4.656,-14.040,-1.917,-7.556,-17.414,-13.348,-38.003,-21.890,-25.426,10.125,2.460,-7.774
2019.07.22 14:05:08.569,1.101,1.149,-4.942,18.642,-16.329,14.319,-7.603,5.292,-11.505,-1.949,-4.258,-15.973,-9.605,-36.552,-17.094,-14.958,10.634,1.589,-6.167
2019.07.22 14:05:08.573,1.418,3.560,-4.975,19.907,-11.964,15.491,-7.728,4.975,-8.795,-3.014,-1.632,-14.659,-6.858,-34.624,-14.955,-7.345,10.375,0.989,-5.571
2019.07.22 14:05:08.577,0.011,4.890,-4.752,19.910,-8.496,15.915,-7.333,4.141,-6.434,-4.005,0.158,-14.285,-4.916,-33.451,-15.224,-6.233,9.804,0.665,-6.016
2019.07.22 14:05:08.581,-1.291,4.757,-3.924,18.488,-7.134,15.843,-6.411,3.394,-4.959,-3.716,1.417,-14.985,-3.033,-33.336,-15.663,-10.472,9.272,0.422,-6.806
2019.07.22 14:05:08.585,-1.083,3.600,-2.240,16.080,-7.951,16.051,-5.666,3.094,-4.585,-1.623,2.412,-16.128,-0.716,-33.426,-13.856,-15.323,9.009,0.128,-7.118
2019.07.22 14:05:08.589,0.855,2.429,0.347,13.648,-9.687,17.321,-6.006,3.140,-4.980,1.794,2.990,-16.735,1.795,-32.327,-9.030,-16.008,9.191,-0.077,-6.628
2019.07.22 14:05:08.593,3.660,2.177,3.544,12.225,-10.441,19.848,-7.856,3.050,-5.381,5.380,2.694,-16.094,3.755,-29.119,-2.537,-11.006,9.902,0.146,-5.669
2019.07.22 14:05:08.597,6.143,3.091,6.625,12.307,-8.894,22.985,-10.778,2.264,-5.045,8.041,1.255,-14.187,4.596,-24.077,3.225,-2.871,10.985,1.053,-4.838
2019.07.22 14:05:08.601,7.577,4.579,8.538,13.507,-5.295,25.528,-13.666,0.464,-3.793,9.303,-0.994,-11.668,4.401,-18.609,6.459,3.782,11.946,2.551,-4.463
2019.07.22 14:05:08.605,7.939,5.624,8.285,14.737,-1.495,26.360,-15.403,-2.262,-2.263,9.333,-3.216,-9.461,3.733,-14.505,6.898,5.512,12.091,4.198,-4.388
2019.07.22 14:05:08.609,7.551,5.455,5.465,14.835,0.053,25.003,-15.540,-5.475,-1.657,8.493,-4.651,-8.250,2.975,-12.974,5.447,2.197,10.895,5.463,-4.237
2019.07.22 14:05:08.613,6.519,3.957,0.622,13.226,-2.243,21.750,-14.532,-8.571,-3.067,6.890,-5.217,-8.166,1.825,-14.068,3.094,-3.247,8.347,6.051,-3.853
2019.07.22 14:05:08.617,4.530,1.592,-4.866,10.209,-8.103,17.371,-13.395,-10.978,-6.781,4.353,-5.591,-8.800,-0.535,-16.789,0.170,-7.124,5.006,6.030,-3.475
2019.07.22 14:05:08.621,1.205,-1.033,-9.422,6.725,-15.447,12.703,-13.005,-12.285,-12.017,0.841,-6.656,-9.477,-4.641,-19.715,-3.472,-7.464,1.696,5.683,-3.484
2019.07.22 14:05:08.625,-3.292,-3.525,-12.055,3.846,-21.519,8.435,-13.554,-12.292,-17.270,-3.106,-8.717,-9.601,-10.000,-21.740,-7.678,-5.049,-0.931,5.231,-3.957
2019.07.22 14:05:08.629,-7.964,-5.712,-12.809,2.328,-24.373,5.136,-14.511,-11.024,-21.066,-6.351,-11.144,-8.898,-15.070,-22.478,-11.512,-2.427,-2.647,4.676,-4.472
2019.07.22 14:05:08.633,-11.345,-7.378,-12.588,2.466,-23.855,3.328,-15.080,-8.724,-22.662,-7.678,-12.738,-7.483,-18.106,-22.194,-13.649,-1.808,-3.573,3.863,-4.385
2019.07.22 14:05:08.637,-12.342,-8.087,-12.499,4.181,-21.509,3.379,-14.807,-5.823,-22.269,-6.504,-12.588,-5.743,-18.263,-21.389,-13.352,-3.416,-3.903,2.699,-3.363
2019.07.22 14:05:08.641,-10.928,-7.347,-13.166,7.162,-19.544,5.240,-13.861,-2.827,-20.717,-3.226,-10.728,-4.118,-16.117,-20.371,-11.152,-5.401,-3.726,1.310,-1.717
2019.07.22 14:05:08.645,-8.141,-5.014,-14.472,10.934,-19.488,8.282,-12.814,-0.142,-18.820,1.053,-8.102,-2.870,-13.188,-19.090,-8.563,-5.291,-3.080,-0.003,-0.222
2019.07.22 14:05:08.649,-5.328,-1.551,-15.798,14.899,-21.323,11.490,-12.114,2.089,-16.901,5.201,-5.854,-1.969,-10.842,-17.301,-6.993,-1.886,-2.147,-0.955,0.443
2019.07.22 14:05:08.653,-3.211,2.152,-16.500,18.460,-23.569,13.973,-11.675,4.018,-14.757,8.603,-4.529,-1.158,-9.405,-14.889,-6.733,3.747,-1.296,-1.443,0.191
2019.07.22 14:05:08.657,-1.476,5.317,-16.228,21.239,-24.213,15.432,-10.916,5.945,-12.015,11.219,-3.770,-0.168,-8.168,-12.101,-6.858,8.875,-0.868,-1.563,-0.439
2019.07.22 14:05:08.661,0.778,7.744,-14.915,23.228,-21.937,16.232,-9.210,8.050,-8.583,13.225,-2.745,1.045,-6.182,-9.478,-6.096,10.878,-0.831,-1.476,-0.737
2019.07.22 14:05:08.665,4.101,9.817,-12.615,24.712,-16.917,16.992,-6.407,10.186,-4.853,14.657,-0.889,2.243,-3.170,-7.513,-3.945,9.033,-0.666,-1.269,-0.362
2019.07.22 14:05:08.669,8.040,12.042,-9.429,25.981,-10.756,18.069,-3.029,11.892,-1.525,15.419,1.614,3.076,0.198,-6.268,-1.074,5.072,0.339,-0.928,0.457
2019.07.22 14:05:08.673,11.346,14.536,-5.633,27.040,-5.589,19.339,0.015,12.664,0.799,15.615,3.986,3.391,2.858,-5.247,1.266,2.123,2.532,-0.437,1.185
2019.07.22 14:05:08.677,12.916,16.921,-1.808,27.593,-2.894,20.483,1.985,12.308,1.954,15.790,5.455,3.432,4.212,-3.650,2.304,2.695,5.534,0.138,1.454
2019.07.22 14:05:08.681,12.720,18.706,1.279,27.328,-2.699,21.434,2.743,11.113,2.275,16.710,5.809,3.718,4.586,-0.911,2.351,7.014,8.381,0.663,1.323
2019.07.22 14:05:08.685,11.926,19.766,3.088,26.259,-3.679,22.516,2.791,9.678,2.365,18.730,5.457,4.636,4.913,2.845,2.449,12.835,10.143,1.055,1.122
2019.07.22 14:05:08.689,12.045,20.427,3.685,24.780,-4.079,24.044,2.899,8.478,2.740,21.251,5.020,6.022,5.913,6.734,3.398,16.842,10.532,1.376,1.062
2019.07.22 14:05:08.693,13.717,21.021,3.719,23.344,-2.911,25.691,3.600,7.453,3.546,22.804,4.815,7.066,7.468,9.520,4.988,16.739,10.028,1.802,0.974
2019.07.22 14:05:08.697,16.074,21.313,3.887,22.012,-0.641,26.260,4.870,5.987,4.502,21.873,4.667,6.703,8.681,10.272,6.078,12.635,9.397,2.457,0.421
2019.07.22 14:05:08.701,17.246,20.421,4.262,20.330,1.076,24.255,6.174,3.346,5.065,17.933,4.152,4.264,8.564,8.856,5.439,6.814,9.011,3.269,-0.909
2019.07.22 14:05:08.705,15.661,17.434,4.068,17.737,0.492,18.993,6.803,-0.661,4.734,11.957,3.025,-0.003,6.821,5.964,2.661,2.115,8.542,3.985,-2.887
2019.07.22 14:05:08.709,11.226,12.329,2.206,14.240,-3.006,11.453,6.294,-5.266,3.340,5.960,1.466,-4.943,4.131,2.689,-1.577,0.043,7.316,4.350,-4.948
2019.07.22 14:05:08.713,5.493,6.406,-1.784,10.795,-8.352,4.105,4.705,-8.948,1.197,1.860,-0.062,-9.056,1.745,-0.068,-6.032,-0.068,5.046,4.311,-6.445
2019.07.22 14:05:08.717,0.721,1.742,-7.074,8.948,-13.302,-0.344,2.609,-10.209,-0.996,0.413,-1.160,-11.264,0.716,-1.985,-9.713,-0.337,2.314,4.071,-7.043
2019.07.22 14:05:08.721,-1.499,-0.046,-11.803,9.883,-15.689,-0.514,0.823,-8.481,-2.487,0.949,-1.761,-11.418,1.297,-3.292,-12.359,-2.655,0.346,3.929,-6.876
2019.07.22 14:05:08.725,-1.076,1.138,-14.172,13.509,-14.626,2.817,0.003,-4.555,-2.884,2.014,-2.092,-10.245,2.889,-4.433,-14.267,-7.258,0.186,4.033,-6.366
2019.07.22 14:05:08.729,0.789,3.801,-13.602,18.309,-10.897,7.242,0.301,-0.214,-2.418,2.406,-2.386,-8.814,4.498,-5.672,-15.738,-12.550,1.900,4.250,-5.893
2019.07.22 14:05:08.733,2.589,5.874,-11.090,22.139,-6.349,10.219,1.288,2.750,-1.820,1.846,-2.615,-7.897,5.370,-6.908,-16.656,-16.192,4.429,4.262,-5.559
2019.07.22 14:05:08.737,3.487,6.046,-8.461,23.467,-2.742,10.542,2.209,3.516,-1.855,0.906,-2.456,-7.611,5.404,-7.751,-16.539,-16.618,6.256,3.828,-5.194
2019.07.22 14:05:08.741,3.633,4.482,-7.088,22.211,-0.837,8.798,2.461,2.597,-2.755,0.375,-1.511,-7.518,5.139,-7.782,-14.952,-13.911,6.396,2.984,-4.518
2019.07.22 14:05:08.745,3.765,2.452,-7.033,19.608,-0.269,6.646,2.008,1.384,-3.962,0.635,0.381,-7.026,5.369,-6.796,-11.900,-9.531,4.994,2.037,-3.335
2019.07.22 14:05:08.749,4.523,1.287,-7.239,17.270,-0.132,5.551,1.424,1.197,-4.422,1.490,2.959,-5.813,6.642,-4.925,-7.901,-5.242,3.124,1.350,-1.625
2019.07.22 14:05:08.753,6.038,1.529,-6.551,16.162,0.242,5.925,1.489,2.493,-3.301,2.486,5.597,-4.000,8.897,-2.594,-3.726,-2.072,1.998,1.096,0.445
2019.07.22 14:05:08.757,7.966,2.853,-4.687,16.201,0.909,7.176,2.553,4.729,-0.655,3.332,7.528,-2.038,11.439,-0.349,-0.057,0.042,2.206,1.178,2.538
2019.07.22 14:05:08.761,9.770,4.636,-2.398,16.665,1.519,8.432,4.145,6.873,2.447,4.070,8.130,-0.427,13.264,1.370,2.717,1.833,3.494,1.357,4.211
2019.07.22 14:05:08.765,10.936,6.504,-0.760,16.938,1.791,9.219,5.162,8.149,4.475,4.870,7.138,0.542,13.561,2.414,4.480,3.959,5.137,1.472,5.035
2019.07.22 14:05:08.769,11.017,8.339,-0.275,16.937,1.805,9.572,4.596,8.432,4.356,5.704,4.740,0.866,12.118,2.949,5.260,6.459,6.491,1.560,4.807
2019.07.22 14:05:08.773,9.675,9.816,-0.584,16.912,1.835,9.609,2.321,8.095,2.114,6.193,1.534,0.730,9.377,3.258,5.102,8.693,7.265,1.782,3.707
2019.07.22 14:05:08.777,6.869,10.117,-0.994,16.883,1.952,9.107,-0.646,7.479,-1.190,5.795,-1.669,0.299,6.100,3.397,4.012,9.655,7.394,2.233,2.272
2019.07.22 14:05:08.781,3.109,8.300,-1.283,16.319,1.804,7.555,-2.678,6.477,-4.161,4.169,-4.129,-0.455,2.883,2.947,1.975,8.469,6.771,2.813,1.112
2019.07.22 14:05:08.785,-0.524,4.183,-1.984,14.390,0.837,4.676,-2.556,4.569,-5.918,1.453,-5.461,-1.750,-0.129,1.122,-0.952,4.855,5.199,3.269,0.533
2019.07.22 14:05:08.789,-2.819,-1.035,-3.846,10.648,-1.187,0.938,-0.297,1.272,-6.481,-1.721,-5.766,-3.811,-3.095,-2.710,-4.446,-0.540,2.642,3.389,0.349
2019.07.22 14:05:08.793,-3.166,-5.145,-6.969,5.553,-3.844,-2.490,2.808,-3.377,-6.527,-4.498,-5.505,-6.601,-6.041,-8.385,-7.761,-6.132,-0.506,3.165,0.060
2019.07.22 14:05:08.797,-2.067,-6.267,-10.430,0.376,-6.216,-4.436,4.963,-8.677,-6.766,-6.180,-5.195,-9.667,-8.541,-14.676,-9.786,-9.886,-3.477,2.805,-0.708
2019.07.22 14:05:08.801,-0.971,-4.261,-12.862,-3.497,-7.519,-4.599,4.934,-13.601,-7.478,-6.564,-5.110,-12.274,-9.874,-19.757,-9.517,-10.257,-5.592,2.580,-1.844
2019.07.22 14:05:08.805,-1.422,-1.095,-13.534,-5.372,-7.685,-3.914,2.693,-17.326,-8.525,-6.085,-5.197,-13.805,-9.623,-22.230,-6.769,-7.188,-6.766,2.613,-2.795
2019.07.22 14:05:08.809,-4.070,0.258,-12.985,-5.572,-7.386,-4.066,-0.731,-19.591,-9.690,-5.708,-5.244,-14.199,-8.236,-22.079,-2.680,-2.460,-7.610,2.798,-3.013
2019.07.22 14:05:08.813,-8.219,-2.259,-12.573,-5.084,-7.414,-6.419,-3.977,-20.635,-10.956,-6.539,-5.155,-14.080,-6.993,-20.787,0.565,1.072,-8.938,2.882,-2.462
2019.07.22 14:05:08.817,-12.230,-8.385,-13.212,-4.814,-7.862,-11.087,-6.086,-20.824,-12.395,-9.254,-5.078,-14.398,-7.226,-20.409,0.877,1.113,-11.018,2.659,-1.739
2019.07.22 14:05:08.821,-14.459,-15.646,-14.372,-4.994,-7.789,-16.752,-6.770,-20.286,-13.804,-13.595,-5.259,-15.750,-9.266,-22.132,-2.298,-2.545,-13.161,2.100,-1.665
2019.07.22 14:05:08.825,-14.070,-20.887,-14.271,-5.116,-5.731,-21.344,-6.209,-18.852,-14.488,-18.273,-5.764,-17.824,-11.961,-25.342,-7.285,-7.748,-14.053,1.349,-2.619
2019.07.22 14:05:08.829,-11.220,-22.144,-11.261,-4.339,-0.777,-23.118,-4.722,-16.295,-13.542,-21.461,-6.294,-19.432,-13.246,-27.954,-10.928,-11.303,-12.630,0.591,-4.159
2019.07.22 14:05:08.833,-6.672,-19.590,-5.330,-2.023,6.553,-21.461,-2.669,-12.657,-10.526,-21.745,-6.331,-19.197,-11.518,-27.859,-10.509,-11.112,-8.890,-0.080,-5.253
2019.07.22 14:05:08.837,-1.301,-15.063,1.521,1.945,14.330,-17.031,-0.615,-8.370,-6.021,-18.991,-5.520,-16.474,-6.861,-24.486,-5.640,-7.582,-3.995,-0.702,-4.997
2019.07.22 14:05:08.841,4.105,-10.696,6.474,7.136,20.203,-11.290,0.580,-4.085,-1.536,-14.564,-4.030,-11.874,-1.198,-19.320,1.266,-3.220,0.412,-1.359,-3.282
2019.07.22 14:05:08.845,8.741,-7.722,7.823,12.746,22.734,-5.828,0.030,-0.356,1.304,-10.640,-2.580,-6.962,2.830,-14.952,6.410,-0.668,3.199,-2.064,-0.904
2019.07.22 14:05:08.849,11.726,-6.181,6.163,17.773,22.164,-1.861,-2.587,2.556,1.771,-8.982,-2.065,-3.327,3.513,-13.322,7.031,-0.678,4.323,-2.707,0.961
2019.07.22 14:05:08.853,12.398,-5.485,3.897,21.189,20.102,-0.033,-6.568,4.643,0.508,-9.949,-3.019,-1.657,1.086,-14.447,3.164,-1.650,4.612,-3.101,1.527
2019.07.22 14:05:08.857,10.822,-5.150,3.424,22.175,18.381,-0.413,-10.317,5.943,-0.923,-12.391,-5.279,-1.492,-2.575,-16.576,-2.521,-1.187,4.991,-3.098,0.818
2019.07.22 14:05:08.861,8.016,-5.088,5.402,20.434,17.892,-2.553,-12.145,6.375,-1.127,-14.490,-8.065,-1.797,-5.302,-17.621,-6.676,1.569,5.755,-2.683,-0.511
2019.07.22 14:05:08.865,5.512,-5.383,8.396,16.420,18.211,-5.572,-11.251,5.762,0.180,-14.974,-10.406,-1.870,-6.019,-16.735,-7.571,4.780,6.437,-1.978,-1.777
2019.07.22 14:05:08.869,4.412,-5.967,10.108,11.257,18.189,-8.378,-8.219,4.015,2.044,-13.857,-11.643,-1.859,-5.181,-14.830,-6.071,5.059,6.273,-1.184,-2.759
2019.07.22 14:05:08.873,4.600,-6.623,9.158,6.273,16.988,-10.067,-4.644,1.282,3.024,-12.266,-11.674,-2.477,-4.102,-13.689,-4.656,0.218,4.852,-0.489,-3.721
2019.07.22 14:05:08.877,4.797,-7.325,5.994,2.345,14.740,-10.372,-2.156,-2.069,2.230,-11.581,-10.885,-4.203,-3.830,-14.447,-5.363,-8.537,2.409,-0.017,-5.011
2019.07.22 14:05:08.881,3.509,-8.516,2.317,-0.506,12.338,-9.880,-1.513,-5.627,-0.114,-12.561,-9.859,-6.671,-4.500,-16.711,-8.288,-16.861,-0.398,0.174,-6.628
2019.07.22 14:05:08.885,0.188,-10.920,-0.386,-2.989,10.594,-9.787,-2.379,-9.107,-2.959,-15.074,-9.097,-8.809,-5.565,-19.024,-11.731,-20.089,-2.986,0.073,-8.149
2019.07.22 14:05:08.889,-4.309,-14.947,-1.913,-5.930,9.457,-11.251,-3.841,-12.357,-5.260,-18.463,-8.865,-9.667,-6.540,-20.236,-13.752,-16.652,-5.172,-0.285,-9.066
2019.07.22 14:05:08.893,-8.346,-20.169,-3.178,-9.600,7.967,-14.678,-5.170,-15.208,-6.681,-22.128,-9.179,-9.232,-7.481,-20.590,-13.752,-9.514,-7.095,-0.812,-9.212
2019.07.22 14:05:08.897,-10.752,-25.344,-5.059,-13.449,5.002,-19.381,-6.227,-17.328,-7.656,-25.784,-9.853,-8.529,-8.775,-21.542,-12.817,-4.365,-8.868,-1.363,-8.913
2019.07.22 14:05:08.901,-11.660,-29.057,-7.361,-16.450,0.276,-23.865,-7.264,-18.266,-8.830,-29.262,-10.571,-8.843,-10.476,-24.415,-12.629,-5.729,-10.335,-1.770,-8.727
2019.07.22 14:05:08.905,-12.258,-30.508,-8.841,-17.784,-5.185,-26.605,-8.409,-17.732,-10.405,-32.164,-11.002,-10.648,-11.903,-28.995,-13.949,-13.731,-11.144,-1.916,-9.019
2019.07.22 14:05:08.909,-13.654,-29.850,-8.273,-17.371,-9.492,-26.855,-9.365,-15.899,-11.932,-33.841,-10.948,-13.117,-11.981,-33.292,-15.984,-23.904,-11.081,-1.791,-9.724
2019.07.22 14:05:08.913,-15.808,-27.848,-5.615,-15.874,-10.969,-25.014,-9.598,-13.467,-12.685,-33.801,-10.479,-14.652,-10.112,-34.785,-17.140,-30.205,-10.316,-1.502,-10.483
2019.07.22 14:05:08.917,-17.445,-25.221,-2.240,-14.202,-9.139,-22.338,-8.852,-11.352,-12.266,-32.217,-9.914,-14.068,-6.850,-32.277,-16.448,-29.095,-9.329,-1.206,-10.994
2019.07.22 14:05:08.921,-17.050,-22.225,0.022,-12.872,-4.957,-20.177,-7.478,-10.144,-10.925,-30.030,-9.628,-11.537,-3.712,-26.920,-14.440,-21.809,-8.524,-0.998,-11.246
2019.07.22 14:05:08.925,-14.155,-18.817,0.251,-11.702,-0.179,-19.224,-6.252,-9.692,-9.361,-28.439,-9.766,-8.522,-2.190,-21.588,-12.717,-13.318,-7.858,-0.823,-11.454
2019.07.22 14:05:08.929,-9.847,-15.166,-0.897,-10.000,3.650,-19.211,-5.802,-9.140,-8.182,-28.097,-10.092,-6.758,-2.695,-19.013,-12.612,-8.858,-6.797,-0.484,-11.775
2019.07.22 14:05:08.933,-6.082,-11.956,-1.748,-7.095,5.906,-19.215,-6.094,-7.437,-7.510,-28.657,-10.118,-7.035,-4.283,-20.030,-14.106,-10.591,-4.671,0.256,-12.117
2019.07.22 14:05:08.937,-4.332,-10.124,-0.911,-2.839,6.903,-18.352,-6.438,-4.041,-7.023,-29.039,-9.474,-8.712,-5.403,-23.204,-15.894,-16.625,-1.178,1.525,-12.219
2019.07.22 14:05:08.941,-4.661,-10.196,1.742,2.224,7.345,-16.400,-6.008,0.643,-6.382,-28.269,-8.255,-10.302,-5.100,-26.011,-16.520,-22.801,3.324,3.240,-11.938
2019.07.22 14:05:08.945,-5.915,-11.801,5.141,7.091,7.717,-13.963,-4.490,5.378,-5.649,-26.241,-7.067,-10.621,-3.743,-26.631,-15.609,-25.659,7.935,5.112,-11.449
2019.07.22 14:05:08.949,-6.792,-13.816,7.988,10.731,8.065,-12.088,-2.334,8.719,-5.327,-23.807,-6.705,-9.610,-2.718,-25.021,-14.152,-24.410,11.664,6.760,-11.141
2019.07.22 14:05:08.953,-6.860,-15.104,9.733,12.485,8.230,-11.593,-0.444,9.766,-6.000,-22.142,-7.636,-8.218,-3.349,-22.583,-13.667,-20.747,13.889,7.867,-11.272
2019.07.22 14:05:08.957,-6.672,-15.279,10.774,12.258,8.231,-12.541,0.436,8.583,-7.841,-21.874,-9.677,-7.521,-5.905,-20.884,-14.962,-17.072,14.575,8.307,-11.691
2019.07.22 14:05:08.961,-6.974,-14.883,11.811,10.468,8.416,-14.196,0.161,6.070,-10.390,-22.653,-12.076,-7.845,-9.435,-20.509,-17.554,-14.755,14.153,8.166,-11.904
2019.07.22 14:05:08.965,-7.759,-14.843,13.026,7.838,9.222,-15.486,-0.845,3.371,-12.778,-23.471,-13.962,-8.587,-12.498,-20.909,-20.141,-13.690,13.199,7.677,-11.487
2019.07.22 14:05:08.969,-8.091,-15.642,13.845,5.122,10.763,-15.670,-1.995,1.233,-14.209,-23.431,-14.834,-8.830,-14.174,-21.185,-21.676,-13.156,12.151,7.107,-10.502
2019.07.22 14:05:08.973,-6.877,-16.880,13.492,2.848,12.596,-14.770,-2.916,-0.315,-14.380,-22.364,-14.763,-8.189,-14.567,-21.008,-22.080,-12.907,11.181,6.667,-9.556
2019.07.22 14:05:08.977,-3.954,-17.568,11.791,1.179,13.894,-13.512,-3.535,-1.785,-13.552,-20.846,-14.209,-7.164,-14.497,-20.859,-22.043,-13.437,10.245,6.469,-9.387
2019.07.22 14:05:08.981,-0.498,-16.886,9.476,-0.055,13.922,-12.815,-3.859,-3.742,-12.308,-19.681,-13.636,-6.716,-14.715,-21.425,-22.190,-15.242,9.221,6.514,-10.284
2019.07.22 14:05:08.985,1.656,-14.805,7.706,-1.161,12.487,-13.179,-3.768,-6.324,-11.201,-19.321,-13.228,-7.452,-15.326,-22.765,-22.410,-17.905,8.042,6.717,-11.792
2019.07.22 14:05:08.989,1.307,-12.078,7.181,-2.317,10.074,-14.360,-3.059,-9.105,-10.554,-19.658,-12.907,-9.085,-15.838,-24.040,-21.969,-19.983,6.770,6.925,-12.959
2019.07.22 14:05:08.993,-1.236,-9.655,7.597,-3.401,7.583,-15.535,-1.752,-11.338,-10.485,-20.275,-12.559,-10.612,-15.711,-24.072,-20.260,-19.915,5.590,6.964,-12.984
2019.07.22 14:05:08.997,-4.393,-8.016,7.898,-4.039,5.874,-15.814,-0.318,-12.410,-11.023,-20.828,-12.237,-11.038,-14.876,-22.274,-17.482,-17.240,4.743,6.706,-11.774
2019.07.22 14:05:09.001,-6.485,-6.943,7.091,-3.849,5.397,-14.764,0.442,-12.185,-12.170,-21.189,-12.131,-10.041,-13.781,-19.151,-14.584,-13.061,4.404,6.136,-9.988
2019.07.22 14:05:09.005,-6.889,-5.851,4.969,-2.729,6.078,-12.610,-0.088,-11.025,-13.821,-21.273,-12.341,-8.098,-12.974,-15.932,-12.514,-9.289,4.582,5.377,-8.539
2019.07.22 14:05:09.009,-6.277,-4.354,2.202,-0.981,7.449,-10.036,-1.801,-9.493,-15.638,-20.793,-12.656,-6.024,-12.605,-13.624,-11.413,-7.239,5.094,4.649,-7.916
2019.07.22 14:05:09.013,-5.802,-2.570,-0.183,0.837,8.905,-7.754,-3.723,-7.967,-17.051,-19.270,-12.587,-4.382,-12.302,-12.263,-10.494,-6.691,5.661,4.155,-7.847
2019.07.22 14:05:09.017,-5.967,-0.958,-1.451,2.243,9.947,-6.156,-4.463,-6.410,-17.455,-16.384,-11.681,-3.223,-11.513,-10.957,-8.737,-6.178,6.073,3.977,-7.536
2019.07.22 14:05:09.021,-6.122,0.147,-1.433,3.136,10.359,-5.233,-3.015,-4.451,-16.513,-12.355,-9.904,-2.309,-10.017,-8.676,-5.820,-4.283,6.316,4.042,-6.297
2019.07.22 14:05:09.025,-5.016,0.869,-0.316,3.864,10.290,-4.738,0.612,-1.687,-14.380,-7.988,-7.813,-1.516,-8.181,-5.130,-2.520,-0.896,6.579,4.191,-4.102
2019.07.22 14:05:09.029,-1.919,1.730,1.709,5.015,10.198,-4.413,5.360,1.997,-11.674,-4.226,-6.341,-0.993,-6.763,-1.016,-0.232,2.561,7.133,4.311,-1.647
2019.07.22 14:05:09.033,2.636,3.247,4.574,7.048,10.631,-4.107,9.717,6.293,-9.199,-1.543,-6.295,-0.953,-6.426,2.522,-0.002,4.143,8.167,4.430,0.088
2019.07.22 14:05:09.037,7.079,5.510,8.131,9.976,11.894,-3.754,12.536,10.593,-7.572,0.355,-7.885,-1.314,-7.332,4.773,-1.848,2.847,9.711,4.701,0.478
2019.07.22 14:05:09.041,9.848,8.045,11.892,13.279,13.767,-3.319,13.584,14.236,-6.978,2.204,-10.577,-1.608,-9.095,5.945,-4.860,-0.577,11.652,5.276,-0.383
2019.07.22 14:05:09.045,10.381,10.041,15.034,16.080,15.486,-2.815,13.488,16.733,-7.181,4.473,-13.365,-1.300,-11.063,6.916,-7.904,-4.051,13.788,6.155,-1.789
2019.07.22 14:05:09.049,9.327,10.762,16.733,17.505,16.081,-2.393,13.202,17.826,-7.752,6.811,-15.281,-0.271,-12.692,8.475,-10.313,-5.498,15.831,7.110,-2.893
2019.07.22 14:05:09.053,7.860,9.898,16.557,17.052,14.911,-2.361,13.384,17.438,-8.341,8.162,-15.836,0.973,-13.733,10.709,-12.012,-4.123,17.351,7.755,-3.186
2019.07.22 14:05:09.057,6.714,7.707,14.601,14.827,12.077,-3.023,14.074,15.602,-8.822,7.536,-15.144,1.634,-14.188,13.012,-13.112,-0.791,17.769,7.714,-2.665
2019.07.22 14:05:09.061,5.719,4.915,11.292,11.515,8.397,-4.395,14.823,12.475,-9.244,4.885,-13.709,1.264,-14.131,14.666,-13.472,2.641,16.508,6.799,-1.645
2019.07.22 14:05:09.065,4.149,2.451,7.066,8.088,4.929,-6.020,15.109,8.417,-9.680,1.408,-12.073,0.213,-13.615,15.497,-12.717,4.485,13.298,5.085,-0.421
2019.07.22 14:05:09.069,1.494,1.077,2.252,5.354,2.346,-7.104,14.724,4.031,-10.118,-1.020,-10.558,-0.516,-12.705,16.056,-10.713,4.090,8.447,2.870,0.939
2019.07.22 14:05:09.073,-2.026,1.018,-2.807,3.559,0.604,-6.987,13.880,0.059,-10.481,-0.969,-9.252,0.029,-11.594,17.193,-8.042,1.976,2.846,0.540,2.515
2019.07.22 14:05:09.077,-5.621,1.772,-7.582,2.269,-0.866,-5.669,13.028,-2.838,-10.748,1.630,-8.172,2.019,-10.638,19.383,-5.930,-0.681,-2.376,-1.556,4.283
2019.07.22 14:05:09.081,-8.563,2.262,-11.441,0.660,-2.590,-3.978,12.538,-4.312,-11.016,5.425,-7.423,4.636,-10.237,22.323,-5.560,-2.778,-6.373,-3.185,5.910
2019.07.22 14:05:09.085,-10.707,1.374,-13.976,-1.928,-4.548,-3.159,12.489,-4.430,-11.434,8.485,-7.202,6.574,-10.628,25.094,-7.250,-3.803,-8.958,-4.246,6.830
2019.07.22 14:05:09.089,-12.419,-1.356,-15.306,-5.480,-6.130,-4.102,12.673,-3.579,-12.014,9.490,-7.642,6.886,-11.712,26.725,-10.140,-3.981,-10.562,-4.758,6.548
2019.07.22 14:05:09.093,-14.044,-5.332,-16.018,-9.207,-6.605,-6.695,12.808,-2.256,-12.500,8.460,-8.625,5.559,-13.058,26.739,-12.693,-4.070,-11.838,-4.831,4.996
2019.07.22 14:05:09.097,-15.409,-9.133,-16.722,-11.982,-5.743,-9.841,12.767,-0.887,-12.438,6.588,-9.756,3.419,-14.085,25.328,-13.658,-4.943,-13.189,-4.644,2.662
2019.07.22 14:05:09.101,-15.897,-11.350,-17.581,-13.075,-4.116,-12.169,12.688,0.244,-11.475,5.320,-10.537,1.483,-14.336,23.107,-12.815,-7.088,-14.593,-4.389,0.366
2019.07.22 14:05:09.105,-15.058,-11.532,-18.230,-12.701,-2.834,-13.014,12.877,0.973,-9.684,5.353,-10.647,0.277,-13.698,20.727,-10.973,-10.211,-15.796,-4.210,-1.180
2019.07.22 14:05:09.109,-13.254,-10.588,-18.220,-11.989,-2.900,-12.945,13.564,1.231,-7.659,6.226,-10.123,-0.372,-12.438,18.613,-9.284,-13.175,-16.680,-4.139,-1.748
2019.07.22 14:05:09.113,-11.724,-10.265,-17.588,-12.297,-4.623,-13.411,14.680,1.083,-6.246,6.718,-9.308,-0.959,-11.037,16.955,-8.406,-14.458,-17.442,-4.087,-1.647
2019.07.22 14:05:09.117,-11.882,-11.997,-17.038,-14.316,-7.481,-15.689,15.812,0.784,-6.044,5.750,-8.606,-1.702,-9.917,15.839,-8.126,-12.963,-18.402,-3.908,-1.429
2019.07.22 14:05:09.121,-14.313,-15.861,-17.458,-17.522,-10.469,-19.840,16.378,0.756,-6.984,3.141,-8.215,-2.218,-9.205,15.346,-7.632,-8.753,-19.605,-3.498,-1.435
2019.07.22 14:05:09.125,-18.206,-20.383,-19.136,-20.403,-12.640,-24.418,15.958,1.422,-8.309,-0.249,-8.040,-1.744,-8.683,15.558,-6.162,-3.139,-20.586,-2.888,-1.533
2019.07.22 14:05:09.129,-21.692,-23.365,-21.319,-21.336,-13.463,-27.209,14.571,2.961,-8.985,-3.035,-7.815,0.289,-7.934,16.509,-3.523,2.034,-20.563,-2.260,-1.222
2019.07.22 14:05:09.133,-22.886,-23.217,-22.559,-19.581,-12.847,-26.537,12.740,5.157,-8.288,-4.109,-7.321,3.749,-6.624,18.161,-0.159,5.492,-18.982,-1.872,-0.044
2019.07.22 14:05:09.137,-20.964,-19.913,-21.685,-15.776,-10.966,-22.329,11.261,7.444,-6.191,-3.222,-6.499,7.764,-4.706,20.400,3.184,7.220,-16.023,-1.932,2.009
2019.07.22 14:05:09.141,-16.558,-14.987,-18.666,-11.622,-8.133,-16.242,10.802,9.162,-3.311,-1.045,-5.397,11.145,-2.455,22.979,5.869,8.181,-12.664,-2.492,4.391
2019.07.22 14:05:09.145,-11.289,-10.621,-14.721,-8.992,-4.841,-10.820,11.553,9.828,-0.490,1.218,-4.022,12.963,-0.307,25.404,7.593,9.237,-10.214,-3.435,6.294
2019.07.22 14:05:09.149,-6.835,-8.465,-11.578,-9.003,-1.846,-8.223,13.139,9.255,1.667,2.392,-2.281,12.901,1.365,26.884,8.353,10.155,-9.613,-4.548,7.132
2019.07.22 14:05:09.153,-4.184,-8.917,-10.433,-11.586,-0.065,-9.266,14.852,7.468,3.019,1.770,-0.105,11.224,2.384,26.517,8.289,9.631,-10.961,-5.645,6.879
2019.07.22 14:05:09.157,-3.456,-11.208,-11.372,-15.708,-0.210,-13.249,16.073,4.558,3.791,-0.704,2.354,8.483,2.764,23.759,7.587,6.461,-13.569,-6.649,6.022
2019.07.22 14:05:09.161,-4.236,-14.063,-13.575,-19.988,-2.328,-18.485,16.607,0.669,4.318,-4.472,4.646,5.250,2.624,18.945,6.467,1.000,-16.429,-7.590,5.191
2019.07.22 14:05:09.165,-5.989,-16.433,-16.026,-23.295,-5.600,-23.107,16.735,-3.842,4.865,-8.523,6.222,2.029,2.149,13.451,5.218,-4.379,-18.734,-8.512,4.736
2019.07.22 14:05:09.169,-8.232,-17.865,-18.090,-25.031,-8.603,-25.727,16.934,-8.214,5.602,-11.668,6.796,-0.690,1.618,9.238,4.173,-6.478,-20.114,-9.365,4.583
2019.07.22 14:05:09.173,-10.452,-18.448,-19.561,-25.066,-9.949,-25.745,17.463,-11.337,6.657,-12.908,6.600,-2.412,1.433,7.902,3.620,-3.469,-20.519,-9.955,4.410
2019.07.22 14:05:09.177,-12.024,-18.523,-20.299,-23.532,-8.932,-23.375,18.099,-12.161,8.093,-11.829,6.279,-2.770,2.002,9.778,3.707,3.515,-19.960,-10.014,3.995
2019.07.22 14:05:09.181,-12.353,-18.415,-19.960,-20.686,-5.801,-19.486,18.227,-10.292,9.792,-8.840,6.439,-1.738,3.482,13.692,4.395,10.733,-18.385,-9.340,3.423
2019.07.22 14:05:09.185,-11.204,-18.269,-18.141,-16.900,-1.543,-15.304,17.252,-6.359,11.373,-5.053,7.171,0.266,5.541,17.616,5.462,14.138,-15.780,-7.938,2.999
2019.07.22 14:05:09.189,-8.913,-17.996,-14.837,-12.692,2.646,-11.976,15.061,-1.819,12.314,-1.778,7.914,2.528,7.362,19.840,6.561,12.093,-12.381,-6.041,2.959
2019.07.22 14:05:09.193,-6.257,-17.286,-10.739,-8.682,5.862,-10.103,12.211,1.787,12.242,0.153,7.813,4.370,8.000,19.927,7.290,6.512,-8.747,-4.022,3.240
2019.07.22 14:05:09.197,-3.995,-15.744,-7.007,-5.441,7.718,-9.496,9.688,3.696,11.210,0.787,6.325,5.461,6.902,18.799,7.293,1.496,-5.626,-2.221,3.490
2019.07.22 14:05:09.201,-2.438,-13.169,-4.628,-3.308,8.304,-9.375,8.351,4.333,9.689,0.903,3.623,5.875,4.230,17.935,6.361,0.382,-3.654,-0.825,3.311
2019.07.22 14:05:09.205,-1.361,-9.851,-3.843,-2.294,8.016,-8.969,8.436,4.974,8.248,1.364,0.485,5.869,0.752,18.239,4.488,3.335,-3.114,0.147,2.526
2019.07.22 14:05:09.209,-0.326,-6.663,-4.087,-2.119,7.396,-8.134,9.454,6.852,7.146,2.406,-2.234,5.577,-2.666,19.404,1.837,7.291,-3.851,0.760,1.257
2019.07.22 14:05:09.213,0.884,-4.727,-4.467,-2.333,7.006,-7.497,10.583,10.304,6.204,3.410,-4.126,4.870,-5.563,20.190,-1.368,8.275,-5.345,1.067,-0.211
2019.07.22 14:05:09.217,2.097,-4.776,-4.334,-2.477,7.281,-7.942,11.280,14.523,5.092,3.365,-5.324,3.504,-7.999,19.408,-4.911,4.380,-6.864,1.089,-1.634
2019.07.22 14:05:09.221,2.986,-6.567,-3.500,-2.209,8.362,-9.750,11.681,18.065,3.825,1.725,-6.118,1.455,-10.180,16.855,-8.521,-2.836,-7.639,0.862,-2.887
2019.07.22 14:05:09.225,3.463,-8.823,-2.002,-1.400,10.023,-12.077,12.484,19.738,3.036,-0.972,-6.450,-0.860,-11.938,13.537,-11.732,-9.535,-7.074,0.497,-3.881
2019.07.22 14:05:09.229,3.846,-9.848,0.230,-0.197,11.807,-13.258,14.380,19.254,3.696,-3.252,-5.782,-2.673,-12.554,11.004,-13.830,-12.412,-4.983,0.147,-4.435
2019.07.22 14:05:09.233,4.594,-8.474,3.373,0.997,13.331,-11.843,17.428,17.233,6.428,-3.597,-3.503,-3.279,-11.175,10.292,-14.098,-10.976,-1.769,-0.102,-4.299
2019.07.22 14:05:09.237,5.856,-4.753,7.341,1.650,14.581,-7.673,20.854,14.625,10.877,-1.500,0.403,-2.495,-7.571,11.208,-12.300,-7.638,1.639,-0.346,-3.334
2019.07.22 14:05:09.241,7.253,0.076,11.415,1.340,15.920,-2.176,23.437,12.037,15.690,2.069,5.018,-0.853,-2.634,12.440,-9.111,-5.659,4.154,-0.840,-1.726
2019.07.22 14:05:09.245,8.171,4.333,14.372,-0.006,17.776,2.405,24.240,9.456,19.181,5.156,8.832,0.647,1.868,12.386,-6.055,-6.660,5.078,-1.824,0.001
2019.07.22 14:05:09.249,8.363,6.828,15.181,-2.014,20.212,4.368,23.163,6.540,20.286,6.000,10.594,1.074,4.225,10.133,-4.811,-9.610,4.498,-3.297,1.239
2019.07.22 14:05:09.253,8.341,7.407,13.803,-3.991,22.754,3.585,20.924,3.183,19.164,4.114,10.087,0.090,3.817,5.956,-6.213,-11.967,3.226,-4.926,1.657
2019.07.22 14:05:09.257,9.127,6.815,11.417,-5.225,24.647,1.506,18.510,-0.124,17.022,0.561,8.233,-1.896,1.514,1.081,-9.625,-11.897,2.301,-6.183,1.382
2019.07.22 14:05:09.261,11.462,6.115,9.773,-5.290,25.389,0.182,16.521,-2.457,15.314,-2.719,6.444,-4.009,-0.877,-3.046,-13.235,-9.764,2.360,-6.647,0.855
2019.07.22 14:05:09.265,15.058,6.089,10.080,-4.168,25.101,1.001,14.898,-3.031,14.874,-4.071,5.679,-5.452,-1.762,-5.487,-15.174,-7.716,3.333,-6.245,0.453
2019.07.22 14:05:09.269,18.535,6.975,12.224,-2.168,24.404,3.985,13.230,-1.772,15.538,-2.988,5.910,-5.961,-0.734,-6.128,-14.752,-7.850,4.669,-5.260,0.191
2019.07.22 14:05:09.273,20.182,8.532,14.901,0.280,23.851,7.997,11.330,0.546,16.432,-0.186,6.339,-5.880,1.280,-5.486,-12.898,-10.485,5.893,-4.083,-0.248
2019.07.22 14:05:09.277,19.062,10.219,16.569,2.775,23.398,11.570,9.579,2.737,16.622,3.041,6.146,-5.852,2.743,-4.253,-11.444,-13.938,7.019,-2.917,-1.178
2019.07.22 14:05:09.281,15.633,11.349,16.479,4.991,22.394,13.711,8.707,3.914,15.648,5.679,5.141,-6.324,2.559,-2.890,-11.729,-15.896,8.471,-1.678,-2.556
2019.07.22 14:05:09.285,11.451,11.252,15.054,6.661,20.178,14.210,9.162,4.040,13.651,7.459,3.819,-7.211,0.723,-1.488,-13.556,-15.183,10.581,-0.164,-3.926
2019.07.22 14:05:09.289,8.183,9.571,13.401,7.612,16.855,13.454,10.581,3.938,11.129,8.724,2.823,-7.934,-1.831,0.105,-15.336,-12.509,13.094,1.645,-4.734
2019.07.22 14:05:09.293,6.660,6.627,12.414,7.871,13.545,12.053,11.837,4.781,8.612,9.915,2.305,-7.803,-3.984,2.037,-15.337,-9.701,15.134,3.441,-4.781
2019.07.22 14:05:09.297,6.642,3.537,12.198,7.740,11.798,10.577,11.702,7.350,6.460,11.096,1.734,-6.505,-5.217,4.255,-13.129,-8.166,15.717,4.751,-4.447
2019.07.22 14:05:09.301,7.324,1.782,12.161,7.686,12.491,9.443,9.662,11.530,4.835,11.876,0.324,-4.388,-5.889,6.444,-10.097,-7.920,14.429,5.307,-4.473
2019.07.22 14:05:09.305,8.066,2.312,11.618,8.056,15.035,8.821,6.300,16.308,3.717,11.711,-2.272,-2.352,-6.875,8.118,-8.574,-7.910,11.756,5.318,-5.468
2019.07.22 14:05:09.309,8.718,4.737,10.342,8.798,17.578,8.525,2.936,20.276,2.905,10.352,-5.574,-1.404,-8.877,8.826,-10.203,-7.240,8.811,5.401,-7.477
2019.07.22 14:05:09.313,9.362,7.340,8.703,9.456,18.183,8.043,0.795,22.347,2.070,8.121,-8.509,-2.124,-11.893,8.361,-14.697,-6.158,6.689,6.171,-9.939
2019.07.22 14:05:09.317,9.874,8.117,7.409,9.536,16.175,6.883,0.305,22.270,0.925,5.846,-10.075,-4.336,-15.158,6.892,-19.919,-5.921,5.955,7.798,-12.048
2019.07.22 14:05:09.321,9.846,6.284,7.159,9.018,12.674,5.123,1.014,20.689,-0.514,4.518,-9.946,-7.169,-17.542,4.946,-23.211,-7.674,6.609,9.860,-13.216
2019.07.22 14:05:09.325,9.008,3.137,8.445,8.595,9.853,3.745,2.123,18.710,-1.799,4.835,-8.556,-9.461,-18.129,3.234,-23.016,-11.276,8.435,11.598,-13.324
2019.07.22 14:05:09.329,7.738,1.476,11.464,9.331,9.398,4.307,3.175,17.247,-2.233,6.886,-6.673,-10.284,-16.642,2.404,-19.675,-15.073,11.313,12.399,-12.613
2019.07.22 14:05:09.333,7.046,3.788,15.978,11.869,11.280,7.955,4.348,16.526,-1.336,10.114,-4.825,-9.307,-13.524,2.848,-14.932,-16.805,15.140,12.107,-11.387
2019.07.22 14:05:09.337,7.867,10.416,21.113,15.735,13.734,14.394,6.151,16.052,0.714,13.587,-3.046,-6.841,-9.679,4.647,-10.631,-14.950,19.450,10.980,-9.796
2019.07.22 14:05:09.341,10.166,19.073,25.341,19.322,14.469,21.659,8.826,15.039,3.039,16.466,-1.076,-3.590,-6.048,7.630,-7.618,-9.555,23.165,9.363,-7.875
2019.07.22 14:05:09.345,12.669,26.174,26.948,20.736,12.249,27.064,11.952,13.039,4.531,18.422,1.206,-0.281,-3.230,11.469,-5.542,-2.067,24.897,7.406,-5.735
2019.07.22 14:05:09.349,13.630,29.148,24.913,18.999,7.693,28.837,14.606,10.339,4.540,19.748,3.512,2.614,-1.336,15.706,-3.553,5.520,23.748,5.063,-3.679
2019.07.22 14:05:09.353,12.161,28.065,19.686,14.812,2.764,27.305,15.930,7.846,3.271,21.085,5.268,4.947,-0.099,19.753,-1.186,11.530,20.054,2.357,-2.090
2019.07.22 14:05:09.357,9.086,25.417,13.208,10.250,-0.629,24.713,15.681,6.508,1.597,22.894,6.009,6.783,0.817,22.950,1.255,15.008,15.430,-0.380,-1.157
2019.07.22 14:05:09.361,6.531,24.230,7.985,7.547,-1.861,23.699,14.332,6.667,0.405,25.040,5.704,8.243,1.535,24.751,3.041,15.716,11.963,-2.563,-0.696
2019.07.22 14:05:09.365,6.429,25.919,5.699,7.749,-1.803,25.484,12.693,7.799,-0.013,26.797,4.756,9.393,1.866,24.981,3.667,14.065,11.019,-3.696,-0.240
2019.07.22 14:05:09.369,9.026,29.482,6.308,10.184,-1.954,29.072,11.371,8.847,-0.053,27.310,3.694,10.225,1.465,23.970,3.234,11.091,12.500,-3.742,0.611
2019.07.22 14:05:09.373,12.557,32.531,8.264,13.095,-3.243,32.020,10.478,8.953,-0.361,26.203,2.813,10.684,0.109,22.406,2.265,8.291,15.083,-3.160,1.840
2019.07.22 14:05:09.377,14.399,33.247,9.676,14.937,-5.433,32.180,9.764,8.066,-1.250,23.865,2.044,10.667,-2.107,20.912,1.189,7.017,17.224,-2.558,2.935
2019.07.22 14:05:09.381,12.864,31.666,9.544,15.370,-7.517,29.086,8.990,6.985,-2.482,21.170,1.113,10.004,-4.811,19.631,-0.029,7.580,18.167,-2.217,3.168
2019.07.22 14:05:09.385,8.277,29.320,8.145,15.208,-8.685,24.013,8.192,6.801,-3.591,18.825,-0.173,8.488,-7.584,18.131,-1.777,8.712,18.197,-1.899,2.049
2019.07.22 14:05:09.389,2.564,27.658,6.393,15.446,-9.046,18.812,7.610,8.111,-4.418,16.857,-1.747,5.986,-10.187,15.773,-4.334,8.054,18.034,-1.109,-0.345
2019.07.22 14:05:09.393,-2.253,26.659,4.809,16.188,-9.516,14.543,7.394,10.585,-5.364,14.680,-3.347,2.638,-12.583,12.315,-7.446,3.688,17.937,0.391,-3.388
2019.07.22 14:05:09.397,-5.401,24.861,3.042,16.398,-11.011,11.019,7.348,13.183,-7.080,11.739,-4.709,-1.022,-14.770,8.324,-10.322,-4.205,17.326,2.257,-6.240
2019.07.22 14:05:09.401,-7.501,20.809,0.348,14.722,-13.598,7.497,6.995,14.866,-9.830,8.208,-5.742,-4.140,-16.581,5.036,-12.062,-12.852,15.277,3.736,-8.268
2019.07.22 14:05:09.405,-9.507,14.685,-3.423,10.731,-16.308,3.779,5.918,15.231,-13.080,5.162,-6.513,-5.863,-17.685,3.687,-12.205,-18.239,11.477,4.219,-9.308
2019.07.22 14:05:09.409,-11.458,8.682,-7.265,5.579,-17.728,0.675,4.142,14.621,-15.684,3.967,-7.110,-5.759,-17.813,4.746,-11.007,-17.630,6.812,3.738,-9.617
2019.07.22 14:05:09.413,-12.194,5.696,-9.457,1.449,-16.935,-0.620,2.254,13.636,-16.580,5.314,-7.489,-4.085,-17.024,7.570,-9.282,-11.588,3.045,2.955,-9.619
2019.07.22 14:05:09.417,-10.321,7.281,-8.733,0.135,-14.087,0.338,1.172,12.475,-15.476,8.607,-7.453,-1.703,-15.746,10.748,-7.949,-3.959,1.716,2.639,-9.609
2019.07.22 14:05:09.421,-5.630,12.452,-5.256,1.781,-10.298,2.622,1.679,10.671,-13.009,12.229,-6.772,0.345,-14.518,12.917,-7.585,0.394,3.105,3.024,-9.593
2019.07.22 14:05:09.425,0.295,18.296,-0.610,4.742,-6.957,4.449,4.017,7.496,-10.281,14.543,-5.368,1.383,-13.618,13.506,-8.243,-1.310,6.016,3.587,-9.348
2019.07.22 14:05:09.429,4.854,21.924,3.197,6.703,-5.017,4.480,7.745,2.741,-8.159,14.915,-3.425,1.412,-12.904,12.945,-9.566,-7.946,8.584,3.451,-8.624
2019.07.22 14:05:09.433,6.089,22.315,4.936,6.246,-4.683,2.838,11.908,-2.749,-6.867,14.037,-1.388,1.011,-12.029,12.254,-11.051,-15.210,9.509,2.114,-7.377
2019.07.22 14:05:09.437,3.945,20.713,4.671,3.755,-5.562,1.023,15.408,-7.270,-6.109,13.314,0.196,0.894,-10.843,12.352,-12.279,-18.451,8.826,-0.077,-5.880
2019.07.22 14:05:09.441,0.216,19.430,3.301,1.024,-7.028,0.782,17.398,-9.159,-5.518,13.814,0.886,1.406,-9.618,13.551,-12.985,-15.661,7.701,-2.095,-4.629
2019.07.22 14:05:09.445,-2.753,20.102,1.673,-0.077,-8.491,2.830,17.563,-7.826,-4.980,15.554,0.552,2.310,-8.844,15.510,-13.013,-8.596,7.483,-2.943,-4.089
2019.07.22 14:05:09.449,-3.561,22.738,0.059,1.126,-9.483,6.424,16.202,-4.196,-4.607,17.609,-0.532,2.972,-8.747,17.567,-12.229,-1.362,8.736,-2.354,-4.384
2019.07.22 14:05:09.453,-2.391,26.133,-1.620,3.778,-9.689,10.026,14.064,-0.229,-4.454,18.877,-1.782,2.825,-8.969,19.133,-10.533,2.462,10.951,-0.946,-5.155
2019.07.22 14:05:09.457,-0.473,29.067,-3.213,6.261,-9.044,12.439,12.015,2.203,-4.355,18.874,-2.571,1.767,-8.764,19.911,-7.977,2.100,13.035,0.273,-5.701
2019.07.22 14:05:09.461,1.000,31.178,-4.095,7.380,-7.883,13.474,10.631,2.371,-4.065,17.960,-2.563,0.249,-7.661,19.884,-4.942,-0.253,14.112,0.660,-5.376
2019.07.22 14:05:09.465,1.586,32.832,-3.617,7.095,-6.934,13.701,9.953,1.004,-3.595,16.929,-1.939,-1.002,-6.044,19.218,-2.205,-1.342,14.016,0.371,-4.032
2019.07.22 14:05:09.469,1.496,34.294,-1.863,6.349,-7.028,13.675,9.540,-0.282,-3.354,16.371,-1.326,-1.420,-5.104,18.222,-0.749,0.642,13.193,0.155,-2.192
2019.07.22 14:05:09.473,1.019,35.108,0.051,6.242,-8.630,13.403,8.827,-0.007,-3.895,16.350,-1.445,-0.895,-6.063,17.331,-1.334,4.738,12.220,0.711,-0.806
2019.07.22 14:05:09.477,0.132,34.323,0.575,7.261,-11.504,12.521,7.580,2.348,-5.412,16.576,-2.658,0.224,-9.190,17.007,-3.995,7.947,11.388,2.127,-0.691
2019.07.22 14:05:09.481,-1.361,31.390,-1.152,9.065,-14.789,10.915,6.133,6.194,-7.444,16.831,-4.706,1.396,-13.390,17.511,-7.839,7.386,10.654,3.816,-2.001
2019.07.22 14:05:09.485,-3.418,26.846,-4.580,10.850,-17.497,9.088,5.217,10.338,-9.111,17.181,-6.851,2.208,-16.789,18.638,-11.360,2.335,9.866,4.975,-4.103
2019.07.22 14:05:09.489,-5.618,22.113,-8.114,11.878,-19.107,7.834,5.458,13.697,-9.770,17.805,-8.331,2.536,-17.966,19.666,-13.210,-5.200,8.951,5.163,-5.951
2019.07.22 14:05:09.493,-7.531,18.503,-10.348,11.765,-19.836,7.477,6.888,15.750,-9.589,18.611,-8.844,2.486,-16.944,19.631,-12.994,-11.676,7.885,4.571,-6.730
2019.07.22 14:05:09.497,-9.211,16.289,-11.189,10.440,-20.402,7.415,8.839,16.519,-9.516,19.075,-8.700,2.197,-15.159,17.839,-11.530,-14.108,6.511,3.800,-6.336
2019.07.22 14:05:09.501,-11.220,14.678,-11.877,8.011,-21.441,6.490,10.327,16.249,-10.608,18.512,-8.529,1.701,-14.395,14.305,-10.302,-11.684,4.513,3.396,-5.345
2019.07.22 14:05:09.505,-13.995,12.739,-13.812,4.778,-23.001,3.990,10.696,15.112,-13.165,16.625,-8.762,0.923,-15.449,9.840,-10.413,-5.985,1.697,3.494,-4.538
2019.07.22 14:05:09.509,-17.041,10.499,-17.113,1.348,-24.447,0.449,10.076,13.175,-16.346,13.884,-9.260,-0.180,-17.520,5.717,-11.721,0.153,-1.616,3.839,-4.322
2019.07.22 14:05:09.513,-18.778,9.208,-20.133,-1.382,-24.820,-2.491,9.329,10.576,-18.588,11.414,-9.376,-1.487,-18.772,3.122,-12.824,4.306,-4.458,4.077,-4.481
2019.07.22 14:05:09.517,-17.409,10.454,-20.461,-2.586,-23.382,-3.153,9.504,7.681,-18.541,10.422,-8.412,-2.692,-17.638,2.711,-11.980,5.621,-5.618,4.039,-4.414
2019.07.22 14:05:09.521,-12.296,14.805,-16.727,-2.047,-20.007,-1.024,11.183,5.039,-15.858,11.543,-6.129,-3.435,-13.879,4.473,-8.357,4.909,-4.412,3.782,-3.661
2019.07.22 14:05:09.525,-4.741,21.092,-9.809,-0.452,-15.225,2.867,14.153,3.114,-11.293,14.540,-2.943,-3.488,-8.646,7.874,-2.713,3.808,-1.284,3.420,-2.280
2019.07.22 14:05:09.529,2.582,26.983,-2.455,0.908,-9.952,6.711,17.598,2.033,-6.100,18.520,0.329,-2.880,-3.563,12.131,3.029,3.702,2.279,2.941,-0.818
2019.07.22 14:05:09.533,7.281,30.465,2.494,0.949,-5.106,9.225,20.641,1.554,-1.232,22.450,2.973,-1.855,0.400,16.453,7.039,5.062,4.578,2.210,0.102
2019.07.22 14:05:09.537,8.793,31.132,3.973,-0.412,-1.272,10.489,22.833,1.310,3.079,25.664,4.755,-0.710,3.421,20.221,8.783,7.505,4.778,1.162,0.220
2019.07.22 14:05:09.541,8.638,30.313,3.261,-2.094,1.453,11.683,24.254,1.162,7.108,28.066,5.926,0.404,6.372,23.129,9.289,10.363,3.478,-0.010,-0.218
2019.07.22 14:05:09.545,9.130,29.985,2.848,-2.501,3.419,14.016,25.224,1.378,11.079,30.030,6.892,1.562,9.897,25.266,10.281,13.236,2.348,-0.872,-0.694
2019.07.22 14:05:09.549,11.523,31.336,4.465,-0.565,5.171,17.726,25.895,2.500,14.751,32.113,7.829,2.992,13.768,27.070,12.806,16.143,3.026,-0.997,-0.832
2019.07.22 14:05:09.553,15.005,34.025,7.764,3.551,7.053,21.926,26.066,4.967,17.476,34.742,8.549,4.863,17.003,29.063,16.373,19.200,6.006,-0.266,-0.632
2019.07.22 14:05:09.557,17.317,36.596,10.629,8.573,8.856,25.333,25.352,8.761,18.628,37.969,8.672,7.089,18.570,31.468,19.206,22.145,10.276,1.025,-0.390
2019.07.22 14:05:09.561,16.497,37.607,10.828,12.954,9.756,27.202,23.553,13.328,18.038,41.352,7.961,9.267,18.072,33.941,19.424,24.159,13.938,2.327,-0.392
2019.07.22 14:05:09.565,12.418,36.584,7.743,15.785,8.719,27.721,20.903,17.825,16.108,44.055,6.541,10.817,15.925,35.657,16.317,24.201,15.391,3.178,-0.672
2019.07.22 14:05:09.569,6.973,34.174,2.917,17.150,5.245,27.621,18.003,21.499,13.578,45.180,4.871,11.251,12.993,35.784,10.854,21.703,14.272,3.443,-1.002
2019.07.22 14:05:09.573,2.845,31.571,-0.951,17.744,0.015,27.441,15.480,23.945,11.178,44.237,3.504,10.436,10.085,34.075,5.151,17.138,11.562,3.315,-1.110
2019.07.22 14:05:09.577,1.815,29.761,-1.796,18.142,-5.104,27.108,13.623,25.076,9.422,41.475,2.828,8.681,7.702,31.143,1.319,12.019,8.849,3.102,-0.897
2019.07.22 14:05:09.581,3.811,29.107,0.523,18.325,-7.876,26.120,12.280,24.895,8.577,37.815,2.925,6.598,6.101,28.202,0.448,8.205,7.296,2.975,-0.497
2019.07.22 14:05:09.585,7.214,29.387,4.249,17.780,-6.990,24.074,11.053,23.300,8.696,34.320,3.572,4.787,5.417,26.373,2.234,6.900,7.006,2.893,-0.137
2019.07.22 14:05:09.589,9.990,30.027,6.956,16.022,-3.006,21.017,9.654,20.125,9.572,31.528,4.336,3.538,5.599,26.020,5.310,7.939,7.156,2.728,0.021
2019.07.22 14:05:09.593,10.744,30.297,7.043,13.042,1.750,17.338,8.123,15.413,10.664,29.096,4.693,2.714,6.214,26.560,7.945,9.852,6.728,2.466,-0.063
2019.07.22 14:05:09.597,9.113,29.467,4.540,9.358,4.404,13.408,6.790,9.672,11.190,26.082,4.195,1.879,6.426,26.864,8.733,10.711,5.279,2.295,-0.399
2019.07.22 14:05:09.601,5.535,27.082,0.816,5.662,3.203,9.381,6.017,3.874,10.459,21.691,2.661,0.603,5.380,25.990,7.070,9.259,3.248,2.497,-1.052
2019.07.22 14:05:09.605,0.902,23.365,-2.424,2.438,-1.450,5.364,5.956,-0.913,8.331,15.963,0.359,-1.258,2.852,23.727,3.372,5.638,1.625,3.208,-2.093
2019.07.22 14:05:09.609,-3.619,19.428,-4.124,-0.148,-7.271,1.739,6.507,-4.029,5.437,9.878,-1.980,-3.454,-0.366,20.644,-1.009,1.286,1.270,4.240,-3.439
2019.07.22 14:05:09.613,-6.694,16.946,-4.244,-2.064,-11.512,-0.793,7.474,-5.529,2.925,4.767,-3.406,-5.473,-2.756,17.663,-4.244,-1.937,2.359,5.106,-4.734
2019.07.22 14:05:09.617,-7.175,17.275,-3.454,-3.177,-12.580,-1.605,8.776,-6.044,1.793,1.494,-3.201,-6.828,-2.967,15.491,-4.804,-2.825,4.277,5.262,-5.432
2019.07.22 14:05:09.621,-4.727,20.512,-2.509,-3.245,-10.805,-0.685,10.487,-6.277,2.253,0.008,-1.292,-7.301,-0.723,14.292,-2.249,-1.489,6.000,4.420,-5.109
2019.07.22 14:05:09.625,-0.314,25.241,-1.779,-2.149,-7.926,1.202,12.664,-6.484,3.604,-0.406,1.657,-7.035,2.970,13.732,2.454,0.799,6.672,2.729,-3.775
2019.07.22 14:05:09.629,4.022,29.262,-1.196,-0.128,-5.752,2.974,15.080,-6.338,4.729,-0.429,4.575,-6.411,6.506,13.292,7.378,2.410,6.034,0.719,-1.949
2019.07.22 14:05:09.633,6.169,30.905,-0.546,2.244,-5.002,4.004,17.115,-5.276,4.906,-0.179,6.552,-5.798,8.783,12.595,10.704,2.332,4.476,-0.987,-0.384
2019.07.22 14:05:09.637,5.157,29.983,0.172,4.362,-5.114,4.553,17.942,-3.066,4.296,0.732,7.286,-5.341,9.855,11.569,11.737,0.722,2.746,-1.992,0.379
2019.07.22 14:05:09.641,1.689,27.680,0.584,5.929,-5.033,5.444,16.947,-0.144,3.739,2.635,7.102,-4.888,10.640,10.424,11.191,-1.252,1.521,-2.314,0.329
2019.07.22 14:05:09.645,-2.468,25.492,0.110,7.043,-4.293,7.222,14.127,2.589,4.005,5.284,6.576,-4.099,11.941,9.520,10.523,-2.135,1.088,-2.310,-0.059
2019.07.22 14:05:09.649,-5.778,24.082,-1.653,7.958,-3.500,9.530,10.190,4.382,5.066,7.891,6.077,-2.657,13.606,9.214,10.805,-1.047,1.300,-2.406,-0.182
2019.07.22 14:05:09.653,-7.890,23.026,-4.549,8.771,-3.841,11.303,6.270,5.218,6.032,9.733,5.576,-0.470,14.588,9.720,11.993,1.835,1.779,-2.801,0.290
2019.07.22 14:05:09.657,-9.471,21.618,-7.741,9.322,-6.007,11.714,3.415,5.877,5.846,10.803,4.863,2.248,13.875,11.020,13.134,5.436,2.219,-3.330,1.251
2019.07.22 14:05:09.661,-11.078,19.999,-9.964,9.425,-9.352,11.080,2.140,7.391,4.254,11.899,3.935,5.071,11.555,12.868,13.320,8.478,2.610,-3.595,2.342
2019.07.22 14:05:09.665,-12.084,19.522,-10.085,9.197,-11.987,10.890,2.292,10.227,2.285,13.998,3.186,7.564,9.045,14.928,12.578,10.286,3.234,-3.244,3.267
2019.07.22 14:05:09.669,-10.739,21.835,-7.698,9.120,-11.811,12.746,3.263,13.808,1.771,17.360,3.179,9.487,8.206,16.970,11.937,11.191,4.435,-2.246,3.999
2019.07.22 14:05:09.673,-5.515,27.319,-3.414,9.694,-7.832,16.960,4.366,16.727,4.125,21.100,4.144,10.875,9.911,18.984,12.569,12.255,6.296,-0.940,4.711
2019.07.22 14:05:09.677,3.238,34.119,1.336,10.900,-0.930,21.881,5.138,17.564,9.199,23.618,5.632,11.935,13.201,21.068,14.705,14.434,8.431,0.152,5.526
2019.07.22 14:05:09.681,12.704,38.736,4.941,11.934,6.471,24.618,5.420,15.742,15.060,23.596,6.650,12.820,15.722,23.118,17.209,17.694,10.048,0.644,6.326
2019.07.22 14:05:09.685,18.810,37.974,6.348,11.527,11.629,22.748,5.248,11.841,18.941,20.836,6.263,13.425,15.247,24.556,18.229,20.693,10.311,0.511,6.792
2019.07.22 14:05:09.689,18.577,30.950,5.512,8.713,12.910,15.871,4.711,7.189,18.844,16.318,4.249,13.373,11.190,24.397,16.465,21.351,8.805,0.082,6.638
2019.07.22 14:05:09.693,12.074,19.776,3.307,3.537,10.574,5.934,3.898,3.033,14.766,11.480,1.310,12.232,5.058,21.753,12.118,18.081,5.838,-0.189,5.838
2019.07.22 14:05:09.697,2.535,8.396,0.985,-2.819,6.511,-3.884,2.942,-0.113,8.767,7.317,-1.348,9.859,-0.505,16.516,6.798,10.966,2.344,-0.019,4.649
2019.07.22 14:05:09.701,-5.492,0.380,-0.500,-8.623,3.120,-10.933,2.061,-2.522,3.801,3.961,-2.785,6.651,-3.358,9.726,2.512,2.099,-0.580,0.551,3.413
2019.07.22 14:05:09.705,-8.805,-2.874,-0.922,-12.515,1.986,-14.339,1.500,-4.748,2.046,1.009,-2.902,3.503,-3.056,3.273,0.463,-5.263,-2.272,1.209,2.331
2019.07.22 14:05:09.709,-7.260,-2.426,-0.763,-14.181,3.131,-15.026,1.378,-7.008,3.758,-1.815,-2.414,1.451,-0.832,-0.996,0.537,-8.341,-2.853,1.590,1.390
2019.07.22 14:05:09.713,-3.509,-0.614,-0.820,-14.350,5.211,-14.722,1.558,-8.943,7.312,-4.255,-2.262,1.169,1.487,-2.239,1.702,-6.334,-3.097,1.477,0.517
2019.07.22 14:05:09.717,-1.050,0.589,-1.698,-14.210,6.489,-14.779,1.644,-9.918,10.315,-5.727,-2.917,2.631,2.715,-1.018,2.893,-0.856,-3.880,0.883,-0.206
2019.07.22 14:05:09.721,-1.957,0.556,-3.467,-14.656,5.977,-15.586,1.174,-9.595,11.048,-5.894,-4.082,5.122,2.852,1.138,3.641,5.004,-5.548,-0.006,-0.487
2019.07.22 14:05:09.725,-5.759,-0.134,-5.639,-15.853,4.026,-16.750,-0.113,-8.304,9.342,-5.077,-4.992,7.618,2.666,2.697,4.045,8.440,-7.619,-0.956,-0.002
2019.07.22 14:05:09.729,-10.009,-0.537,-7.417,-17.293,2.041,-17.663,-2.075,-6.909,6.458,-4.095,-5.029,9.278,2.848,2.971,4.311,8.430,-9.029,-1.765,1.294
2019.07.22 14:05:09.733,-12.013,-0.091,-8.091,-18.176,1.534,-17.892,-4.179,-6.249,4.181,-3.653,-4.179,9.786,3.472,2.313,4.375,6.078,-8.775,-2.290,3.001
2019.07.22 14:05:09.737,-10.470,1.213,-7.370,-17.812,3.130,-17.201,-5.732,-6.550,3.769,-3.768,-3.005,9.373,4.138,1.641,3.991,3.665,-6.552,-2.449,4.412
2019.07.22 14:05:09.741,-6.058,3.139,-5.521,-15.848,6.182,-15.408,-6.207,-7.230,5.375,-3.721,-2.203,8.567,4.539,1.724,3.155,3.099,-2.975,-2.241,4.906
2019.07.22 14:05:09.745,-0.757,5.507,-3.231,-12.319,9.209,-12.394,-5.518,-7.220,8.156,-2.574,-2.122,7.879,4.851,2.774,2.385,4.813,0.747,-1.767,4.315
2019.07.22 14:05:09.749,3.474,8.183,-1.250,-7.628,10.835,-8.337,-4.073,-5.599,10.860,0.144,-2.617,7.628,5.575,4.535,2.515,7.767,3.475,-1.216,3.025
2019.07.22 14:05:09.753,5.764,10.847,0.022,-2.511,10.603,-3.927,-2.589,-2.135,12.467,4.072,-3.272,7.920,6.979,6.649,4.097,10.417,4.717,-0.764,1.707
2019.07.22 14:05:09.757,6.544,12.904,0.800,2.096,9.147,-0.239,-1.738,2.558,12.580,8.220,-3.766,8.729,8.695,8.880,6.888,11.833,4.799,-0.448,0.891
2019.07.22 14:05:09.761,6.924,13.736,1.840,5.323,7.697,1.767,-1.791,7.287,11.474,11.504,-4.042,9.921,9.877,11.005,9.874,12.157,4.566,-0.100,0.663
2019.07.22 14:05:09.765,7.768,13.109,4.023,6.718,7.317,1.790,-2.454,10.777,9.896,13.249,-4.172,11.225,9.835,12.578,11.832,12.132,4.864,0.563,0.696
2019.07.22 14:05:09.769,9.101,11.368,7.802,6.452,8.395,0.339,-3.012,12.128,8.749,13.336,-4.098,12.225,8.631,12.907,12.054,12.204,6.117,1.743,0.550
2019.07.22 14:05:09.773,10.186,9.183,12.817,5.193,10.634,-1.638,-2.730,11.052,8.721,12.066,-3.539,12.464,7.100,11.431,10.684,11.967,8.205,3.370,0.008
2019.07.22 14:05:09.777,10.151,7.042,17.935,3.669,13.390,-3.389,-1.310,7.869,9.967,9.915,-2.198,11.652,6.256,8.219,8.491,10.458,10.620,5.072,-0.801
2019.07.22 14:05:09.781,8.652,4.914,21.705,2.173,15.986,-4.775,0.877,3.316,11.958,7.391,-0.092,9.840,6.517,4.150,6.289,7.029,12.714,6.359,-1.554
2019.07.22 14:05:09.785,6.103,2.377,23.005,0.375,17.807,-6.166,2.958,-1.730,13.643,4.951,2.287,7.393,7.381,0.469,4.450,2.074,13.887,6.888,-2.026
2019.07.22 14:05:09.789,3.309,-0.899,21.512,-2.415,18.228,-7.960,4.058,-6.525,13.937,2.910,4.171,4.759,7.801,-2.015,2.812,-3.038,13.662,6.652,-2.285
2019.07.22 14:05:09.793,0.798,-4.740,17.749,-6.694,16.673,-10.143,3.822,-10.651,12.315,1.296,4.964,2.177,6.971,-3.509,0.965,-6.841,11.736,5.948,-2.640
2019.07.22 14:05:09.797,-1.616,-8.483,12.744,-12.296,12.911,-12.258,2.608,-14.046,9.155,-0.201,4.604,-0.426,4.911,-5.075,-1.359,-8.787,8.075,5.148,-3.392
2019.07.22 14:05:09.801,-4.635,-11.394,7.530,-18.347,7.428,-13.753,1.205,-16.853,5.573,-2.030,3.570,-3.231,2.422,-7.751,-4.041,-9.564,3.016,4.446,-4.570
2019.07.22 14:05:09.805,-8.758,-13.106,2.781,-23.648,1.508,-14.390,0.259,-19.150,2.803,-4.381,2.542,-6.155,0.485,-11.581,-6.560,-10.416,-2.706,3.746,-5.841
2019.07.22 14:05:09.809,-13.574,-13.722,-1.236,-27.244,-3.211,-14.341,-0.165,-20.750,1.526,-6.848,1.984,-8.609,-0.374,-15.297,-8.150,-11.952,-8.114,2.767,-6.646
2019.07.22 14:05:09.813,-17.675,-13.541,-4.478,-28.791,-5.504,-13.930,-0.550,-21.205,1.593,-8.497,1.984,-9.642,-0.275,-16.983,-8.025,-13.404,-12.291,1.285,-6.466
2019.07.22 14:05:09.817,-19.382,-12.717,-6.886,-28.567,-5.177,-13.278,-1.435,-20.073,2.331,-8.391,2.416,-8.439,0.367,-15.310,-5.668,-12.994,-14.692,-0.672,-5.070
2019.07.22 14:05:09.821,-17.849,-11.220,-8.287,-27.174,-3.080,-12.218,-2.855,-17.294,3.175,-6.268,3.232,-4.892,1.363,-10.506,-1.103,-9.249,-15.301,-2.793,-2.602
2019.07.22 14:05:09.825,-13.745,-9.117,-8.484,-25.210,-0.523,-10.526,-4.170,-13.415,4.103,-2.869,4.591,0.180,2.957,-4.356,4.948,-2.316,-14.549,-4.638,0.502
2019.07.22 14:05:09.829,-8.968,-6.863,-7.455,-23.091,1.497,-8.271,-4.475,-9.465,5.540,0.407,6.663,5.351,5.529,0.788,11.212,5.768,-13.081,-5.861,3.689
2019.07.22 14:05:09.833,-5.528,-5.229,-5.505,-21.050,2.720,-5.895,-3.303,-6.495,7.819,2.336,9.318,9.271,9.065,3.356,16.359,12.156,-11.503,-6.369,6.474
2019.07.22 14:05:09.837,-4.371,-4.827,-3.242,-19.198,3.449,-3.937,-1.074,-5.025,10.681,2.646,11.971,11.307,12.872,3.367,19.605,14.940,-10.227,-6.323,8.556
2019.07.22 14:05:09.841,-4.984,-5.594,-1.394,-17.535,4.042,-2.617,1.089,-4.745,13.270,2.158,13.812,11.727,15.838,2.237,21.054,14.346,-9.446,-6.004,9.856
2019.07.22 14:05:09.845,-6.031,-6.728,-0.539,-15.937,4.524,-1.671,2.072,-4.670,14.671,2.195,14.263,11.362,17.064,1.764,21.474,12.500,-9.174,-5.634,10.470
2019.07.22 14:05:09.849,-6.486,-7.236,-0.890,-14.187,4.634,-0.629,1.491,-3.679,14.571,3.636,13.338,11.004,16.409,3.009,21.644,11.914,-9.306,-5.261,10.598
2019.07.22 14:05:09.853,-6.341,-6.700,-2.244,-12.122,4.180,0.669,-0.138,-1.145,13.488,6.298,11.601,10.967,14.527,5.766,21.725,13.746,-9.662,-4.764,10.436
2019.07.22 14:05:09.857,-6.379,-5.665,-4.098,-9.814,3.310,1.775,-1.898,2.723,12.342,9.043,9.751,11.086,12.373,8.873,21.172,17.071,-10.043,-3.975,10.109
2019.07.22 14:05:09.861,-7.253,-5.271,-5.869,-7.626,2.430,1.862,-3.209,6.998,11.707,10.512,8.141,11.063,10.582,11.068,19.291,19.662,-10.294,-2.825,9.647
2019.07.22 14:05:09.865,-8.725,-6.396,-7.089,-6.065,1.855,0.350,-4.214,10.526,11.350,9.965,6.620,10.860,9.168,11.790,16.012,19.694,-10.347,-1.432,9.034
2019.07.22 14:05:09.869,-9.749,-8.956,-7.475,-5.486,1.542,-2.539,-5.462,12.458,10.477,7.679,4.808,10.790,7.742,11.450,12.240,17.132,-10.203,-0.067,8.287
2019.07.22 14:05:09.873,-9.352,-11.947,-6.883,-5.890,1.204,-5.789,-7.187,12.532,8.506,4.673,2.576,11.248,6.033,11.066,9.446,13.828,-9.873,0.988,7.506
2019.07.22 14:05:09.877,-7.551,-14.200,-5.241,-6.963,0.713,-8.204,-8.802,10.965,5.753,2.036,0.342,12.279,4.268,11.546,8.746,12.256,-9.328,1.605,6.861
2019.07.22 14:05:09.881,-5.467,-15.257,-2.568,-8.349,0.379,-9.201,-9.118,8.114,3.426,0.298,-1.089,13.356,3.119,13.051,10.171,13.800,-8.557,1.880,6.496
2019.07.22 14:05:09.885,-4.481,-15.670,0.878,-9.946,0.793,-9.185,-7.184,4.198,2.872,-0.776,-1.018,13.547,3.268,14.818,12.663,17.748,-7.682,2.061,6.423
2019.07.22 14:05:09.889,-5.118,-16.484,4.451,-11.968,2.276,-9.222,-3.117,-0.711,4.599,-1.929,0.647,12.018,4.902,15.515,14.800,21.664,-7.049,2.368,6.488
2019.07.22 14:05:09.893,-6.622,-18.339,7.129,-14.678,4.399,-10.252,1.747,-6.438,7.802,-3.910,3.272,8.550,7.515,13.951,15.659,22.854,-7.153,2.832,6.426
2019.07.22 14:05:09.897,-7.649,-20.916,7.834,-17.999,6.031,-12.440,5.580,-12.423,10.760,-7.041,5.810,3.749,10.112,9.759,15.174,19.959,-8.368,3.267,6.006
2019.07.22 14:05:09.901,-7.526,-23.179,5.927,-21.281,5.968,-15.133,7.150,-17.695,11.819,-11.044,7.338,-1.201,11.664,3.686,13.793,13.698,-10.639,3.415,5.148
2019.07.22 14:05:09.905,-7.001,-24.194,1.622,-23.488,3.703,-17.411,6.498,-21.210,10.283,-15.164,7.456,-5.091,11.537,-2.715,11.829,6.363,-13.365,3.144,3.970
2019.07.22 14:05:09.909,-7.757,-23.859,-3.989,-23.715,-0.243,-18.759,4.707,-22.382,6.626,-18.499,6.342,-7.256,9.689,-7.842,9.139,0.420,-15.625,2.562,2.705
2019.07.22 14:05:09.913,-10.986,-22.933,-9.373,-21.744,-4.681,-19.341,2.974,-21.446,2.011,-20.381,4.493,-7.847,6.587,-10.864,5.399,-2.912,-16.647,1.954,1.568
2019.07.22 14:05:09.917,-16.149,-22.366,-13.235,-18.257,-8.493,-19.703,1.713,-19.387,-2.456,-20.672,2.403,-7.684,2.966,-12.110,0.706,-4.311,-16.242,1.573,0.652
2019.07.22 14:05:09.921,-20.992,-22.473,-15.037,-14.548,-11.170,-20.222,0.368,-17.407,-6.176,-19.834,0.369,-7.779,-0.469,-12.768,-4.126,-5.854,-14.887,1.477,-0.093
2019.07.22 14:05:09.925,-22.944,-22.642,-15.045,-11.881,-12.781,-20.788,-1.972,-16.265,-8.999,-18.703,-1.501,-8.775,-3.277,-14.046,-7.917,-9.631,-13.385,1.508,-0.779
2019.07.22 14:05:09.929,-20.890,-21.826,-13.935,-10.861,-13.510,-20.968,-5.682,-15.881,-10.898,-18.057,-3.174,-10.596,-5.403,-16.315,-9.903,-16.239,-12.314,1.466,-1.483
2019.07.22 14:05:09.933,-15.991,-19.430,-12.275,-11.166,-13.286,-20.479,-10.138,-15.472,-11.757,-18.177,-4.613,-12.472,-7.123,-18.809,-10.300,-24.031,-11.657,1.310,-2.174
2019.07.22 14:05:09.937,-10.909,-15.904,-10.273,-11.775,-11.877,-19.507,-14.055,-14.110,-11.491,-18.671,-5.766,-13.358,-8.831,-20.112,-10.159,-29.695,-10.869,1.219,-2.735
2019.07.22 14:05:09.941,-8.021,-12.579,-7.937,-11.525,-9.373,-18.579,-16.323,-11.325,-10.322,-18.718,-6.622,-12.527,-10.754,-19.165,-10.589,-30.037,-9.351,1.449,-3.037
2019.07.22 14:05:09.945,-7.966,-10.843,-5.459,-9.688,-6.553,-18.090,-16.709,-7.374,-8.875,-17.600,-7.226,-10.036,-12.775,-16.109,-11.965,-24.063,-6.967,2.095,-3.032
2019.07.22 14:05:09.949,-9.578,-11.266,-3.426,-6.280,-4.686,-17.936,-15.910,-3.050,-7.927,-15.206,-7.653,-6.779,-14.480,-12.388,-13.733,-14.073,-4.246,2.940,-2.782
2019.07.22 14:05:09.953,-11.117,-13.272,-2.628,-2.003,-4.814,-17.582,-14.986,0.794,-7.951,-12.156,-7.950,-4.063,-15.431,-9.967,-14.931,-4.856,-2.100,3.550,-2.426
2019.07.22 14:05:09.957,-11.724,-15.532,-3.529,2.089,-7.004,-16.542,-14.644,3.642,-8.821,-9.429,-8.081,-2.905,-15.446,-10.151,-14.950,-1.154,-1.264,3.546,-2.091
2019.07.22 14:05:09.961,-11.883,-16.754,-5.794,5.023,-10.175,-14.843,-14.891,5.412,-9.899,-7.733,-7.917,-3.448,-14.667,-12.728,-13.888,-4.779,-1.810,2.874,-1.811
2019.07.22 14:05:09.965,-12.579,-16.309,-8.241,6.239,-12.640,-13.029,-15.243,6.276,-10.450,-7.016,-7.245,-4.856,-13.331,-16.019,-12.252,-13.222,-3.079,1.859,-1.516
2019.07.22 14:05:09.969,-13.930,-14.342,-9.321,5.745,-12.987,-11.664,-15.195,6.421,-10.046,-6.477,-5.840,-5.792,-11.444,-17.799,-10.348,-20.901,-4.019,1.020,-1.081
2019.07.22 14:05:09.973,-14.560,-11.419,-7.854,4.071,-10.699,-10.742,-14.554,5.953,-8.681,-5.084,-3.564,-5.212,-8.677,-16.544,-7.965,-22.472,-3.731,0.754,-0.424
2019.07.22 14:05:09.977,-12.358,-8.084,-3.606,2.084,-6.179,-9.550,-13.389,4.945,-6.589,-2.267,-0.509,-2.990,-4.635,-12.251,-4.660,-16.193,-1.862,1.123,0.422
2019.07.22 14:05:09.981,-6.119,-4.637,2.625,0.695,-0.345,-7.189,-11.750,3.518,-3.980,1.656,2.930,0.008,0.635,-6.374,-0.400,-5.089,1.306,1.861,1.323
2019.07.22 14:05:09.985,3.187,-1.240,9.386,0.541,5.766,-3.378,-9.490,1.793,-0.963,5.589,6.109,2.472,6.322,-0.977,4.068,4.971,5.054,2.583,2.117
2019.07.22 14:05:09.989,12.594,1.869,15.157,1.747,11.146,1.103,-6.399,-0.221,2.299,8.239,8.369,3.452,11.029,2.348,7.486,9.032,8.536,3.003,2.729
2019.07.22 14:05:09.993,18.730,4.275,18.832,3.842,14.797,4.742,-2.549,-2.655,5.403,8.790,9.331,2.896,13.433,3.169,8.843,6.121,11.018,3.055,3.200
2019.07.22 14:05:09.997,19.750,5.517,19.919,5.922,15.891,6.218,1.455,-5.612,7.712,7.274,9.072,1.597,12.995,2.178,7.991,-0.502,12.012,2.838,3.626
2019.07.22 14:05:10.001,16.273,5.326,18.519,7.003,14.180,5.228,4.595,-8.884,8.620,4.445,8.050,0.588,10.226,0.562,5.642,-5.979,11.327,2.491,4.028
2019.07.22 14:05:10.005,10.753,3.776,15.175,6.421,10.377,2.594,5.914,-11.824,7.897,1.283,6.814,0.436,6.332,-0.766,2.761,-7.369,9.096,2.094,4.260
2019.07.22 14:05:10.009,5.808,1.255,10.721,4.102,6.063,-0.422,5.041,-13.592,5.856,-1.531,5.705,0.895,2.519,-1.604,-0.065,-5.469,5.760,1.651,4.059
2019.07.22 14:05:10.013,2.755,-1.727,6.108,0.554,2.949,-3.041,2.430,-13.676,3.243,-3.861,4.773,1.147,-0.510,-2.372,-2.763,-3.667,1.994,1.140,3.226
2019.07.22 14:05:10.017,1.279,-4.721,2.216,-3.394,1.932,-5.378,-0.826,-12.333,0.924,-5.955,3.957,0.420,-2.544,-3.624,-5.324,-4.910,-1.461,0.558,1.822
2019.07.22 14:05:10.021,0.282,-7.418,-0.339,-6.945,2.633,-8.036,-3.502,-10.538,-0.396,-8.049,3.340,-1.453,-3.485,-5.537,-7.298,-9.232,-3.976,-0.052,0.230
2019.07.22 14:05:10.025,-0.921,-9.619,-1.331,-9.571,3.824,-11.241,-4.761,-9.389,-0.321,-10.037,3.218,-3.920,-3.069,-7.708,-7.802,-13.794,-5.163,-0.588,-1.017
2019.07.22 14:05:10.029,-2.032,-11.174,-0.918,-11.021,4.458,-14.303,-4.435,-9.332,1.215,-11.436,3.872,-6.090,-1.037,-9.371,-6.201,-15.331,-4.902,-0.890,-1.561
2019.07.22 14:05:10.033,-2.175,-11.973,0.462,-11.166,4.484,-15.904,-2.985,-9.803,3.939,-11.691,5.215,-7.303,2.332,-9.870,-2.912,-12.936,-3.295,-0.762,-1.476
2019.07.22 14:05:10.037,-0.842,-11.992,2.249,-9.866,4.751,-15.052,-1.228,-9.592,7.217,-10.612,6.646,-7.510,5.882,-9.080,0.413,-8.904,-0.629,-0.042,-1.264
2019.07.22 14:05:10.041,1.485,-11.329,3.893,-7.023,6.093,-11.957,0.013,-7.746,10.118,-8.624,7.325,-7.224,7.884,-7.500,1.673,-6.944,2.654,1.285,-1.545
2019.07.22 14:05:10.045,3.547,-10.196,4.973,-2.802,8.345,-8.100,0.200,-4.332,11.679,-6.636,6.737,-7.111,6.991,-5.966,-0.375,-9.234,5.997,3.009,-2.632
2019.07.22 14:05:10.049,4.205,-8.834,5.334,2.169,10.222,-5.365,-0.767,-0.493,11.328,-5.561,5.137,-7.552,3.202,-5.174,-5.216,-14.721,8.866,4.729,-4.263
2019.07.22 14:05:10.053,3.303,-7.428,5.215,6.845,10.230,-4.833,-2.553,2.291,9.245,-5.776,3.474,-8.426,-1.914,-5.293,-10.784,-20.023,10.956,6.026,-5.707
2019.07.22 14:05:10.057,1.843,-6.067,5.267,10.134,7.956,-6.115,-4.542,3.198,6.379,-6.856,2.803,-9.238,-6.030,-5.916,-14.694,-22.145,12.353,6.684,-6.191
2019.07.22 14:05:10.061,1.344,-4.768,6.339,11.410,4.649,-7.692,-6.072,2.578,4.022,-7.792,3.557,-9.443,-7.432,-6.347,-15.654,-20.751,13.494,6.808,-5.365
2019.07.22 14:05:10.065,2.859,-3.539,9.039,10.836,2.559,-7.984,-6.674,1.614,3.165,-7.564,5.231,-8.733,-6.016,-6.024,-14.092,-18.157,14.876,6.729,-3.515
2019.07.22 14:05:10.069,6.329,-2.423,13.282,9.249,3.445,-6.375,-6.189,1.405,3.998,-5.752,6.740,-7.145,-3.217,-4.818,-11.633,-17.135,16.662,6.746,-1.368
2019.07.22 14:05:10.073,10.663,-1.490,18.129,7.663,7.352,-3.477,-4.751,2.182,5.893,-2.783,7.187,-4.967,-0.927,-3.028,-9.875,-18.420,18.457,6.884,0.343
2019.07.22 14:05:10.077,14.405,-0.782,22.112,6.699,12.570,-0.555,-2.663,3.257,7.832,0.311,6.493,-2.562,-0.220,-1.120,-9.379,-20.030,19.465,6.855,1.279
2019.07.22 14:05:10.081,16.481,-0.256,23.933,6.344,16.764,1.409,-0.244,3.679,9.019,2.502,5.416,-0.229,-0.765,0.594,-9.514,-18.957,18.986,6.266,1.584
2019.07.22 14:05:10.085,16.604,0.241,23.138,6.168,18.418,2.288,2.249,3.059,9.275,3.337,4.984,1.840,-1.295,2.096,-9.122,-13.763,16.947,4.936,1.657
2019.07.22 14:05:10.089,15.171,0.912,20.346,5.816,17.557,2.705,4.646,1.881,9.044,3.140,5.787,3.517,-0.655,3.560,-7.382,-5.916,14.094,3.091,1.816
2019.07.22 14:05:10.093,12.900,1.904,16.863,5.354,15.381,3.434,6.850,1.065,9.075,2.737,7.666,4.675,1.398,5.100,-4.260,1.240,11.646,1.292,2.109
2019.07.22 14:05:10.097,10.484,3.191,13.939,5.194,13.265,4.808,8.834,1.174,10.004,2.896,9.980,5.134,4.204,6.566,-0.333,4.995,10.595,0.123,2.375
2019.07.22 14:05:10.101,8.430,4.526,12.149,5.647,11.972,6.542,10.616,1.902,12.054,3.834,12.147,4.685,6.878,7.563,3.705,5.161,11.083,-0.137,2.472
2019.07.22 14:05:10.105,7.020,5.514,11.258,6.492,11.555,7.984,12.202,2.283,14.932,5.078,13.990,3.180,9.005,7.670,7.388,3.850,12.282,0.349,2.430
2019.07.22 14:05:10.109,6.295,5.801,10.611,6.954,11.769,8.517,13.475,1.431,17.891,5.742,15.599,0.690,10.753,6.728,10.483,3.465,12.875,1.107,2.424
2019.07.22 14:05:10.113,6.021,5.261,9.687,6.170,12.396,7.827,14.122,-0.769,19.933,5.039,16.904,-2.369,12.387,5.007,12.785,4.684,11.867,1.649,2.589
2019.07.22 14:05:10.117,5.733,4.088,8.419,3.839,13.169,5.932,13.704,-3.538,20.118,2.713,17.421,-5.240,13.696,3.123,14.037,6.139,9.194,1.736,2.874
2019.07.22 14:05:10.121,4.945,2.686,7.091,0.541,13.489,3.112,11.870,-5.740,17.942,-0.821,16.465,-7.054,13.912,1.769,14.072,5.937,5.772,1.460,3.061
2019.07.22 14:05:10.125,3.451,1.414,5.990,-2.538,12.458,-0.171,8.641,-6.623,13.617,-4.698,13.731,-7.226,12.267,1.395,13.044,3.565,2.961,1.122,2.945
2019.07.22 14:05:10.129,1.491,0.350,5.132,-4.320,9.437,-3.339,4.541,-6.244,8.097,-8.018,9.751,-5.806,8.732,2.039,11.457,0.456,1.795,1.030,2.519
2019.07.22 14:05:10.133,-0.391,-0.769,4.295,-4.487,4.750,-5.835,0.463,-5.291,2.732,-10.218,5.798,-3.541,4.297,3.381,9.920,-1.247,2.467,1.323,1.995
2019.07.22 14:05:10.137,-1.765,-2.348,3.292,-3.596,-0.126,-7.348,-2.698,-4.523,-1.289,-11.214,3.223,-1.530,0.513,4.982,8.804,-0.574,4.335,1.928,1.661
2019.07.22 14:05:10.141,-2.688,-4.604,2.218,-2.616,-3.281,-7.984,-4.447,-4.288,-3.423,-11.248,2.680,-0.613,-1.414,6.560,8.096,1.490,6.393,2.615,1.689
2019.07.22 14:05:10.145,-3.701,-7.317,1.444,-2.236,-3.568,-8.200,-4.867,-4.418,-3.886,-10.591,3.798,-0.875,-1.293,8.114,7.599,3.030,7.855,3.116,2.066
2019.07.22 14:05:10.149,-5.370,-9.849,1.361,-2.484,-1.399,-8.471,-4.473,-4.525,-3.329,-9.306,5.549,-1.594,0.092,9.844,7.269,3.093,8.490,3.233,2.693
2019.07.22 14:05:10.153,-7.658,-11.439,2.103,-2.909,1.543,-8.898,-3.848,-4.373,-2.342,-7.257,7.002,-1.746,1.674,11.896,7.404,2.678,8.556,2.913,3.529
2019.07.22 14:05:10.157,-9.656,-11.588,3.464,-3.114,3.536,-9.074,-3.288,-4.059,-1.102,-4.351,7.927,-0.735,2.873,14.134,8.453,3.851,8.466,2.270,4.629
2019.07.22 14:05:10.161,-9.973,-10.288,5.078,-3.172,4.040,-8.361,-2.685,-3.922,0.579,-0.833,8.787,1.118,3.886,16.106,10.606,7.697,8.463,1.523,5.998
2019.07.22 14:05:10.165,-7.620,-7.961,6.651,-3.553,3.959,-6.424,-1.661,-4.303,2.928,2.622,10.206,2.715,5.319,17.260,13.496,12.956,8.529,0.903,7.410
2019.07.22 14:05:10.169,-2.799,-5.192,8.054,-4.630,4.725,-3.608,0.127,-5.357,5.871,5.147,12.351,2.874,7.519,17.287,16.296,16.662,8.532,0.540,8.378
2019.07.22 14:05:10.173,3.002,-2.448,9.201,-6.195,6.961,-0.862,2.735,-6.993,8.951,6.125,14.726,1.148,10.169,16.348,18.160,16.371,8.443,0.415,8.382
2019.07.22 14:05:10.177,7.758,0.021,9.865,-7.436,9.819,0.781,5.862,-8.896,11.558,5.543,16.509,-1.817,12.442,15.001,18.704,12.144,8.439,0.393,7.232
2019.07.22 14:05:10.181,10.019,2.090,9.672,-7.448,11.541,0.787,8.969,-10.604,13.242,3.963,17.152,-4.628,13.558,13.847,18.164,6.570,8.782,0.330,5.297
2019.07.22 14:05:10.185,9.638,3.615,8.330,-5.933,10.798,-0.623,11.518,-11.631,13.894,2.105,16.765,-5.986,13.302,13.114,17.137,2.753,9.607,0.165,3.381
2019.07.22 14:05:10.189,7.616,4.388,5.932,-3.537,7.723,-2.720,13.186,-11.662,13.678,0.323,16.006,-5.464,12.105,12.493,16.128,1.948,10.759,-0.050,2.275
2019.07.22 14:05:10.193,5.227,4.258,3.045,-1.537,3.813,-4.773,13.961,-10.771,12.833,-1.615,15.583,-3.718,10.684,11.367,15.248,2.819,11.831,-0.205,2.273
2019.07.22 14:05:10.197,3.111,3.266,0.441,-1.066,0.792,-6.429,14.063,-9.492,11.505,-4.247,15.761,-2.013,9.539,9.290,14.262,2.922,12.373,-0.208,2.981
2019.07.22 14:05:10.201,1.023,1.680,-1.376,-2.418,-0.633,-7.743,13.738,-8.600,9.747,-7.812,16.203,-1.433,8.679,6.385,12.906,1.057,12.136,-0.019,3.571
2019.07.22 14:05:10.205,-1.624,-0.158,-2.487,-4.903,-1.159,-8.894,13.053,-8.667,7.618,-11.805,16.234,-2.303,7.754,3.346,11.187,-1.621,11.208,0.377,3.297
2019.07.22 14:05:10.209,-4.931,-2.040,-3.438,-7.318,-2.164,-9.924,11.839,-9.645,5.264,-15.077,15.292,-4.162,6.417,1.003,9.423,-2.761,9.958,1.020,1.934
2019.07.22 14:05:10.213,-8.151,-3.986,-4.741,-8.693,-4.507,-10.687,9.853,-10.828,2.912,-16.504,13.273,-6.234,4.641,-0.241,8.013,-1.247,8.837,1.969,-0.147
2019.07.22 14:05:10.217,-10.153,-6.135,-6.365,-8.786,-7.848,-11.041,7.069,-11.274,0.783,-15.777,10.542,-7.982,2.750,-0.720,7.094,1.304,8.148,3.230,-2.283
2019.07.22 14:05:10.221,-10.372,-8.529,-7.669,-8.061,-10.988,-11.053,3.873,-10.447,-0.995,-13.730,7.683,-9.363,1.160,-1.310,6.349,1.455,7.907,4.669,-3.960
2019.07.22 14:05:10.225,-9.432,-10.972,-7.889,-7.262,-12.888,-11.032,0.956,-8.614,-2.430,-11.924,5.155,-10.655,0.029,-2.868,5.068,-3.307,7.821,5.985,-5.067
2019.07.22 14:05:10.229,-8.868,-13.131,-6.857,-6.948,-13.519,-11.373,-1.104,-6.687,-3.675,-11.733,3.073,-12.071,-0.942,-5.688,2.444,-12.252,7.399,6.817,-5.825
2019.07.22 14:05:10.233,-10.064,-14.777,-5.367,-7.303,-13.844,-12.356,-2.296,-5.602,-5.004,-13.542,1.209,-13.510,-2.417,-9.337,-2.062,-21.541,6.141,6.905,-6.512
2019.07.22 14:05:10.237,-13.190,-15.975,-4.820,-8.246,-14.998,-14.041,-3.268,-5.701,-6.737,-16.589,-0.810,-14.623,-5.052,-12.954,-8.437,-26.879,3.770,6.231,-7.205
2019.07.22 14:05:10.241,-16.989,-17.018,-6.281,-9.630,-17.323,-16.277,-4.890,-6.548,-9.062,-19.518,-3.227,-15.108,-9.048,-15.773,-16.009,-26.644,0.427,5.029,-7.742
2019.07.22 14:05:10.245,-19.612,-18.100,-9.565,-11.309,-20.026,-18.735,-7.495,-7.309,-11.820,-21.207,-5.940,-14.952,-13.861,-17.471,-23.565,-22.997,-3.249,3.678,-7.884
2019.07.22 14:05:10.249,-19.891,-18.990,-13.062,-13.016,-21.679,-20.883,-10.373,-7.348,-14.377,-21.297,-8.452,-14.412,-18.293,-18.161,-29.657,-20.049,-6.241,2.526,-7.505
2019.07.22 14:05:10.253,-18.071,-18.981,-14.527,-14.221,-21.153,-21.996,-11.984,-6.571,-15.790,-20.109,-10.046,-13.748,-20.947,-18.080,-33.030,-20.547,-7.475,1.762,-6.656
2019.07.22 14:05:10.257,-15.441,-17.234,-12.405,-14.193,-18.297,-21.308,-10.880,-5.277,-15.247,-18.148,-10.105,-12.949,-20.880,-17.301,-33.011,-23.715,-6.248,1.370,-5.476
2019.07.22 14:05:10.261,-13.181,-13.313,-6.846,-12.289,-13.920,-18.366,-6.755,-3.742,-12.581,-15.649,-8.418,-11.700,-18.078,-15.679,-29.717,-25.940,-2.555,1.169,-4.063
2019.07.22 14:05:10.265,-11.382,-7.580,0.296,-8.337,-9.197,-13.379,-0.833,-1.942,-8.483,-12.537,-5.299,-9.647,-13.483,-13.078,-23.984,-23.696,2.848,0.891,-2.440
2019.07.22 14:05:10.269,-9.078,-1.144,6.503,-2.841,-4.969,-7.295,4.776,0.284,-4.196,-8.767,-1.432,-6.776,-8.503,-9.644,-17.052,-16.370,8.693,0.291,-0.641
2019.07.22 14:05:10.273,-5.283,4.607,10.001,3.117,-1.450,-1.451,8.370,2.809,-0.844,-4.687,2.464,-3.602,-4.303,-5.910,-10.163,-6.804,13.649,-0.751,1.171
2019.07.22 14:05:10.277,-0.186,8.601,10.617,8.238,1.557,3.035,9.695,4.957,1.180,-1.065,5.934,-1.006,-1.290,-2.614,-4.246,0.732,16.728,-2.155,2.698
2019.07.22 14:05:10.281,4.531,10.473,9.550,11.432,4.180,5.746,9.927,5.755,2.310,1.276,8.864,0.223,0.880,-0.374,0.222,3.473,17.498,-3.645,3.655
2019.07.22 14:05:10.285,6.640,10.536,8.301,12.128,6.138,6.990,10.609,4.585,3.341,1.941,11.316,-0.145,2.837,0.601,3.206,1.784,16.051,-4.862,3.965
2019.07.22 14:05:10.289,4.950,9.468,7.577,10.393,6.827,7.395,12.319,1.730,4.735,1.185,13.289,-1.605,4.919,0.577,5.032,-1.520,12.867,-5.555,3.853
2019.07.22 14:05:10.293,0.321,7.928,6.958,6.886,5.750,7.388,14.127,-1.654,6.270,-0.293,14.622,-3.148,6.930,0.142,6.262,-3.341,8.684,-5.725,3.739
2019.07.22 14:05:10.297,-4.719,6.350,5.508,2.672,3.010,6.971,14.265,-4.224,7.274,-1.810,15.120,-3.791,8.357,-0.094,7.490,-2.185,4.429,-5.617,3.991
2019.07.22 14:05:10.301,-7.556,4.923,2.785,-1.063,-0.504,5.917,11.542,-5.310,7.249,-3.073,14.768,-3.094,8.841,0.182,9.061,1.403,1.100,-5.527,4.685
2019.07.22 14:05:10.305,-7.170,3.682,-0.600,-3.392,-3.438,4.144,6.373,-5.315,6.338,-4.232,13.823,-1.394,8.485,0.761,10.811,5.707,-0.468,-5.562,5.548
2019.07.22 14:05:10.309,-4.688,2.571,-3.340,-3.987,-4.667,1.919,0.609,-5.341,5.229,-5.620,12.663,0.393,7.731,0.910,12.041,8.964,0.051,-5.529,6.096
2019.07.22 14:05:10.313,-2.434,1.481,-4.446,-3.272,-3.983,-0.301,-3.731,-6.318,4.590,-7.427,11.508,1.279,6.964,-0.330,11.854,9.923,2.232,-5.080,5.901
2019.07.22 14:05:10.317,-2.205,0.298,-4.100,-2.217,-2.310,-2.202,-5.877,-8.274,4.506,-9.518,10.262,0.774,6.185,-3.586,9.767,7.926,4.962,-4.010,4.823
2019.07.22 14:05:10.321,-4.029,-0.992,-3.623,-1.847,-1.217,-3.786,-6.770,-10.301,4.436,-11.490,8.648,-0.793,5.090,-8.565,6.228,3.076,6.907,-2.491,3.094
2019.07.22 14:05:10.325,-6.309,-2.205,-4.530,-2.699,-1.938,-5.204,-8.229,-11.202,3.749,-12.861,6.539,-2.378,3.484,-13.834,2.633,-3.274,7.143,-1.030,1.241
2019.07.22 14:05:10.329,-7.152,-2.980,-7.330,-4.560,-4.466,-6.392,-11.472,-10.335,2.394,-13.263,4.200,-2.725,1.660,-17.253,0.702,-8.310,5.611,-0.157,-0.117
2019.07.22 14:05:10.333,-5.839,-2.937,-11.014,-6.648,-7.373,-6.892,-16.138,-8.025,1.114,-12.544,2.215,-1.028,0.354,-17.012,1.526,-8.621,3.097,-0.061,-0.499
2019.07.22 14:05:10.337,-3.308,-1.896,-13.645,-8.122,-8.566,-6.074,-20.517,-5.293,0.987,-10.807,1.088,2.599,0.253,-12.740,4.871,-2.152,0.728,-0.461,0.256
2019.07.22 14:05:10.341,-1.332,0.020,-13.657,-8.562,-6.574,-3.638,-22.788,-3.140,2.596,-8.390,0.844,7.111,1.407,-5.964,9.245,9.960,-0.661,-0.821,1.903
2019.07.22 14:05:10.345,-1.068,2.468,-10.931,-8.129,-1.549,0.020,-22.267,-1.944,5.510,-5.794,0.949,11.017,3.057,0.512,12.722,23.280,-0.916,-0.748,3.862
2019.07.22 14:05:10.349,-2.113,5.089,-6.857,-7.315,4.731,3.898,-19.752,-1.358,8.493,-3.550,0.657,13.118,4.069,4.064,14.008,32.299,-0.465,-0.270,5.433
2019.07.22 14:05:10.353,-2.800,7.636,-3.374,-6.533,9.887,6.906,-16.788,-0.727,10.306,-2.059,-0.453,13.093,3.689,3.689,13.083,33.749,0.121,0.219,6.091
2019.07.22 14:05:10.357,-1.489,9.925,-1.697,-5.870,12.315,8.431,-14.515,0.354,10.511,-1.499,-2.168,11.589,2.075,0.488,11.016,28.673,0.551,0.297,5.734
2019.07.22 14:05:10.361,2.115,11.669,-1.662,-5.167,11.983,8.544,-13.020,1.736,9.684,-1.850,-3.775,9.774,0.198,-3.140,9.169,21.593,0.920,-0.159,4.738
2019.07.22 14:05:10.365,6.600,12.432,-2.109,-4.327,10.128,7.756,-11.603,2.837,8.926,-2.998,-4.536,8.624,-0.800,-5.089,8.378,17.279,1.454,-0.905,3.772
2019.07.22 14:05:10.369,9.688,11.825,-1.915,-3.544,8.181,6.584,-9.631,3.038,9.057,-4.810,-4.140,8.384,-0.324,-4.828,8.660,17.478,2.174,-1.560,3.452
2019.07.22 14:05:10.373,9.673,9.864,-0.866,-3.254,6.748,5.315,-7.210,2.059,10.113,-7.087,-2.816,8.539,1.387,-3.540,9.528,20.083,2.757,-1.935,4.016
2019.07.22 14:05:10.377,6.436,7.167,0.291,-3.810,5.412,4.074,-5.151,0.089,11.435,-9.458,-1.088,8.264,3.553,-3.081,10.537,21.272,2.739,-2.159,5.211
2019.07.22 14:05:10.381,1.398,4.749,0.560,-5.174,3.393,3.030,-4.350,-2.353,12.188,-11.387,0.559,7.043,5.413,-4.586,11.563,18.829,1.866,-2.513,6.445
2019.07.22 14:05:10.385,-3.472,3.439,-0.465,-6.850,0.433,2.430,-5.156,-4.692,11.872,-12.396,1.835,5.033,6.618,-7.736,12.621,13.892,0.313,-3.138,7.106
2019.07.22 14:05:10.389,-6.815,3.325,-2.291,-8.154,-2.869,2.387,-7.242,-6.523,10.478,-12.403,2.554,2.931,7.214,-11.155,13.505,9.788,-1.415,-3.866,6.872
2019.07.22 14:05:10.393,-8.466,3.664,-3.980,-8.604,-5.517,2.651,-10.002,-7.713,8.302,-11.884,2.502,1.504,7.361,-13.536,13.684,9.034,-2.819,-4.343,5.837
2019.07.22 14:05:10.397,-9.175,3.398,-4.911,-8.168,-6.940,2.668,-13.042,-8.343,5.689,-11.634,1.499,1.117,7.118,-14.550,12.660,11.124,-3.713,-4.315,4.436
2019.07.22 14:05:10.401,-9.835,1.951,-5.237,-7.214,-7.438,1.995,-16.323,-8.575,2.924,-12.201,-0.344,1.610,6.491,-14.868,10.543,13.015,-4.287,-3.830,3.227
2019.07.22 14:05:10.405,-10.855,-0.303,-5.692,-6.222,-7.875,0.744,-19.881,-8.511,0.286,-13.392,-2.427,2.554,5.650,-15.369,8.293,11.881,-4.898,-3.173,2.664
2019.07.22 14:05:10.409,-12.082,-2.261,-6.942,-5.512,-8.916,-0.370,-23.477,-8.137,-1.926,-14.306,-3.815,3.657,5.010,-16.282,7.296,7.729,-5.798,-2.601,2.949
2019.07.22 14:05:10.413,-13.169,-2.884,-9.039,-5.132,-10.503,-0.514,-26.570,-7.393,-3.515,-13.962,-3.769,4.959,5.012,-17.005,8.451,3.581,-6.987,-2.122,3.982
2019.07.22 14:05:10.417,-13.980,-1.960,-11.382,-4.961,-11.998,0.586,-28.673,-6.329,-4.570,-12.113,-2.304,6.676,5.743,-16.731,11.423,2.995,-8.287,-1.515,5.403
2019.07.22 14:05:10.421,-14.667,-0.251,-13.141,-4.875,-12.842,2.342,-29.751,-5.237,-5.473,-9.592,-0.314,8.841,6.738,-15.290,14.668,7.004,-9.509,-0.582,6.720
2019.07.22 14:05:10.425,-15.381,1.083,-13.757,-4.846,-13.069,3.665,-30.272,-4.607,-6.630,-7.836,0.920,11.067,7.224,-13.447,16.325,13.088,-10.550,0.608,7.498
2019.07.22 14:05:10.429,-15.960,1.321,-13.138,-4.932,-13.185,3.760,-30.787,-4.901,-8.079,-7.877,0.568,12.668,6.661,-12.351,15.402,17.092,-11.361,1.706,7.556
2019.07.22 14:05:10.433,-15.913,0.620,-11.482,-5.211,-13.537,2.695,-31.399,-6.251,-9.320,-9.561,-1.171,13.073,5.204,-12.593,12.429,16.510,-11.852,2.335,7.081
2019.07.22 14:05:10.437,-14.772,-0.275,-9.009,-5.730,-13.767,1.270,-31.583,-8.320,-9.581,-11.637,-3.197,12.228,3.666,-13.702,9.098,12.388,-11.873,2.389,6.556
2019.07.22 14:05:10.441,-12.539,-0.753,-5.873,-6.478,-12.954,0.307,-30.538,-10.453,-8.384,-12.695,-4.271,10.654,2.982,-14.534,7.120,8.288,-11.300,2.122,6.491
2019.07.22 14:05:10.445,-9.854,-0.859,-2.313,-7.343,-10.392,-0.037,-27.801,-12.055,-6.003,-12.254,-3.876,9.102,3.545,-14.266,7.121,7.228,-10.152,1.957,7.106
2019.07.22 14:05:10.449,-7.697,-1.136,1.208,-8.053,-6.361,-0.306,-23.628,-12.918,-3.412,-11.104,-2.528,8.052,4.910,-13.170,8.333,9.224,-8.612,2.158,8.147
2019.07.22 14:05:10.453,-6.814,-1.946,4.109,-8.169,-2.165,-1.088,-18.832,-13.245,-1.712,-10.628,-1.332,7.434,6.118,-12.481,9.272,11.504,-6.917,2.652,9.007
2019.07.22 14:05:10.457,-7.252,-2.878,6.007,-7.232,0.680,-2.260,-14.245,-13.368,-1.429,-11.611,-1.127,6.793,6.385,-13.410,8.853,11.142,-5.232,3.145,9.101
2019.07.22 14:05:10.461,-8.327,-2.829,6.985,-5.047,1.532,-2.834,-10.279,-13.388,-2.190,-13.524,-1.874,5.752,5.662,-16.083,7.136,7.779,-3.624,3.388,8.259
2019.07.22 14:05:10.465,-9.020,-0.786,7.514,-1.936,1.088,-1.639,-6.934,-13.075,-3.000,-14.886,-2.726,4.403,4.658,-19.272,5.188,4.067,-2.159,3.383,6.875
2019.07.22 14:05:10.469,-8.533,3.297,8.059,1.263,0.851,1.686,-4.181,-12.137,-2.922,-14.435,-2.698,3.316,4.331,-21.155,4.238,3.416,-1.010,3.326,5.696
2019.07.22 14:05:10.473,-6.636,8.266,8.694,3.573,1.995,6.232,-2.325,-10.624,-1.643,-12.174,-1.386,3.135,5.235,-20.560,4.830,7.008,-0.407,3.380,5.361
2019.07.22 14:05:10.477,-3.655,12.454,9.094,4.434,4.539,10.329,-1.933,-9.086,0.421,-9.425,0.781,4.074,7.188,-17.746,6.570,12.656,-0.427,3.489,6.021
2019.07.22 14:05:10.481,-0.183,14.788,8.931,4.093,7.432,12.677,-3.362,-8.281,2.501,-7.845,2.905,5.699,9.459,-14.164,8.587,16.516,-0.790,3.407,7.279
2019.07.22 14:05:10.485,3.225,15.493,8.316,3.486,9.433,13.182,-6.289,-8.608,3.978,-8.198,4.256,7.175,11.272,-11.427,10.250,16.209,-0.923,2.925,8.479
2019.07.22 14:05:10.489,6.205,15.799,7.826,3.643,10.012,12.844,-9.694,-9.726,4.626,-9.865,4.672,7.785,12.226,-10.323,11.496,12.699,-0.322,2.064,9.135
2019.07.22 14:05:10.493,8.565,16.885,8.006,4.967,9.563,12.770,-12.392,-10.721,4.505,-11.462,4.461,7.354,12.356,-10.557,12.561,9.329,0.987,1.065,9.176
2019.07.22 14:05:10.497,10.209,18.870,8.726,6.912,8.827,13.155,-13.742,-10.744,3.676,-12.035,3.969,6.266,11.863,-11.316,13.396,8.870,2.279,0.191,8.883
2019.07.22 14:05:10.501,11.100,20.650,9.012,8.297,8.122,13.083,-14.002,-9.651,2.047,-11.819,3.230,5.097,10.786,-12.070,13.383,11.107,2.481,-0.470,8.588
2019.07.22 14:05:10.505,11.279,20.718,7.622,8.083,7.068,11.328,-14.064,-8.129,-0.510,-11.968,1.978,4.173,8.926,-12.929,11.688,13.042,0.881,-1.002,8.396
2019.07.22 14:05:10.509,10.859,18.339,4.043,6.082,5.033,7.478,-14.787,-7.198,-3.901,-13.521,-0.012,3.368,6.067,-14.343,8.020,11.525,-2.288,-1.469,8.150
2019.07.22 14:05:10.513,9.961,14.187,-0.864,3.100,1.845,2.462,-16.452,-7.467,-7.666,-16.512,-2.596,2.288,2.317,-16.496,3.157,6.046,-5.832,-1.724,7.609
2019.07.22 14:05:10.517,8.648,9.962,-5.151,0.432,-1.879,-1.965,-18.697,-8.745,-11.099,-19.938,-5.257,0.647,-1.730,-18.997,-1.286,-0.709,-8.229,-1.440,6.688
2019.07.22 14:05:10.521,6.929,7.315,-6.916,-0.941,-5.093,-4.369,-20.911,-10.291,-13.565,-22.572,-7.420,-1.464,-5.175,-21.132,-3.801,-5.031,-8.519,-0.370,5.523
2019.07.22 14:05:10.525,4.863,6.871,-5.498,-0.884,-7.047,-4.507,-22.672,-11.462,-14.787,-23.867,-8.834,-3.612,-7.248,-22.402,-3.989,-5.259,-6.830,1.373,4.336
2019.07.22 14:05:10.529,2.675,8.020,-1.882,-0.066,-7.735,-3.293,-23.877,-12.196,-14.897,-24.198,-9.684,-5.293,-7.710,-22.827,-2.846,-3.124,-4.215,3.292,3.239
2019.07.22 14:05:10.533,0.757,9.539,1.989,0.576,-7.712,-1.979,-24.496,-12.931,-14.256,-24.297,-10.346,-6.216,-6.962,-22.743,-2.052,-2.219,-1.916,4.780,2.163
2019.07.22 14:05:10.537,-0.490,10.471,4.478,0.418,-7.484,-1.282,-24.270,-14.051,-13.188,-24.487,-10.989,-6.388,-5.780,-22.302,-2.735,-4.856,-0.627,5.501,1.004
2019.07.22 14:05:10.541,-0.854,10.616,5.177,-0.602,-7.045,-1.139,-22.687,-15.412,-11.818,-24.458,-11.356,-5.998,-4.850,-21.212,-4.618,-9.956,-0.226,5.554,-0.152
2019.07.22 14:05:10.545,-0.400,10.374,4.871,-2.163,-5.975,-1.150,-19.342,-16.390,-10.107,-23.756,-10.914,-5.236,-4.393,-19.020,-6.210,-13.754,-0.100,5.291,-0.941
2019.07.22 14:05:10.549,0.655,10.228,4.697,-3.908,-3.970,-1.155,-14.369,-16.442,-8.010,-22.482,-9.254,-4.229,-4.126,-15.708,-5.929,-12.790,0.297,4.962,-0.897
2019.07.22 14:05:10.553,2.164,10.358,5.229,-5.633,-1.292,-1.360,-8.600,-15.676,-5.627,-21.426,-6.446,-3.098,-3.553,-12.047,-3.348,-6.777,1.108,4.505,0.219
2019.07.22 14:05:10.557,4.171,10.682,6.208,-7.196,1.315,-1.920,-3.232,-14.866,-3.232,-21.404,-3.078,-2.042,-2.388,-9.276,0.372,0.963,2.175,3.681,2.162
2019.07.22 14:05:10.561,6.797,11.151,7.003,-8.308,3.172,-2.448,0.771,-14.833,-1.156,-22.338,0.024,-1.306,-0.810,-8.282,3.198,5.826,3.387,2.433,4.263
2019.07.22 14:05:10.565,9.996,11.944,7.305,-8.511,4.209,-2.047,3.149,-15.688,0.404,-22.996,2.206,-1.042,0.643,-8.908,3.576,5.171,4.881,1.122,5.761
2019.07.22 14:05:10.569,13.414,13.332,7.399,-7.426,5.022,0.036,4.361,-16.608,1.543,-21.776,3.245,-1.207,1.456,-10.016,1.439,-0.005,6.872,0.366,6.214
2019.07.22 14:05:10.573,16.518,15.347,7.801,-5.121,6.376,3.657,5.173,-16.420,2.649,-18.046,3.339,-1.602,1.523,-10.329,-1.850,-6.123,9.277,0.579,5.692
2019.07.22 14:05:10.577,18.932,17.593,8.645,-2.259,8.587,7.634,6.124,-14.560,4.213,-12.909,2.897,-2.079,1.250,-9.428,-4.540,-9.808,11.510,1.579,4.639
2019.07.22 14:05:10.581,20.670,19.417,9.428,0.153,11.280,10.447,7.227,-11.649,6.516,-8.679,2.318,-2.727,1.284,-8.118,-5.715,-10.173,12.712,2.624,3.536
2019.07.22 14:05:10.585,22.028,20.312,9.374,1.297,13.693,11.299,8.056,-9.153,9.371,-7.328,1.874,-3.849,2.048,-7.841,-5.804,-8.992,12.294,2.916,2.617
2019.07.22 14:05:10.589,23.172,20.209,8.123,0.981,15.230,10.671,8.111,-8.340,12.107,-9.057,1.723,-5.712,3.430,-9.563,-6.038,-8.898,10.391,2.198,1.827
2019.07.22 14:05:10.593,23.791,19.396,6.109,-0.326,15.801,9.910,7.187,-9.329,13.882,-12.133,1.947,-8.227,4.856,-12.971,-7.334,-11.227,7.833,0.976,1.011
2019.07.22 14:05:10.597,23.197,18.168,4.290,-1.862,15.722,10.136,5.535,-10.953,14.184,-14.129,2.557,-10.833,5.707,-16.594,-9.480,-15.173,5.645,0.171,0.139
2019.07.22 14:05:10.601,20.913,16.546,3.428,-3.055,15.342,11.368,3.758,-11.559,13.204,-13.630,3.451,-12.691,5.766,-18.703,-11.241,-18.667,4.439,0.458,-0.625
2019.07.22 14:05:10.605,17.337,14.354,3.542,-3.754,14.784,12.573,2.518,-10.117,11.796,-11.073,4.388,-13.099,5.352,-18.324,-11.278,-20.013,4.150,1.796,-1.044
2019.07.22 14:05:10.609,13.868,11.590,3.985,-4.075,13.996,12.607,2.225,-6.819,10.976,-8.138,5.035,-11.825,5.034,-15.618,-9.153,-18.919,4.284,3.500,-1.000
2019.07.22 14:05:10.613,12.234,8.730,4.072,-4.082,12.993,11.264,2.822,-2.785,11.258,-6.250,5.062,-9.165,5.143,-11.497,-5.686,-16.266,4.409,4.768,-0.588
2019.07.22 14:05:10.617,13.376,6.610,3.675,-3.625,12.001,9.543,3.797,0.780,12.285,-5.480,4.256,-5.724,5.476,-6.902,-2.420,-13.109,4.471,5.244,-0.041
2019.07.22 14:05:10.621,16.674,5.891,3.274,-2.514,11.342,8.893,4.435,3.283,13.053,-4.713,2.592,-2.125,5.428,-2.372,-0.630,-9.890,4.679,5.176,0.425
2019.07.22 14:05:10.625,20.179,6.516,3.421,-0.878,11.181,10.033,4.213,4.768,12.604,-2.877,0.268,1.144,4.474,1.844,-0.593,-6.459,5.116,5.096,0.708
2019.07.22 14:05:10.629,21.790,7.615,4.132,0.650,11.417,12.290,3.151,5.423,10.734,-0.098,-2.309,3.703,2.635,5.397,-1.579,-2.701,5.476,5.329,0.815
2019.07.22 14:05:10.633,20.603,8.025,4.777,1.166,11.805,13.998,1.869,5.125,8.172,2.218,-4.572,5.217,0.549,7.691,-2.477,0.959,5.202,5.736,0.776
2019.07.22 14:05:10.637,17.463,7.078,4.596,0.043,12.166,13.662,1.251,3.496,6.113,2.495,-5.913,5.463,-0.900,8.183,-2.532,3.633,3.940,5.872,0.617
2019.07.22 14:05:10.641,14.298,5.076,3.406,-2.587,12.439,11.001,1.878,0.435,5.390,0.323,-5.883,4.509,-1.153,6.885,-1.703,4.521,1.908,5.375,0.413
2019.07.22 14:05:10.645,12.716,3.094,1.831,-5.812,12.500,7.107,3.573,-3.419,5.899,-3.103,-4.410,2.841,-0.321,4.563,-0.505,3.415,-0.159,4.233,0.338
2019.07.22 14:05:10.649,12.901,2.246,0.826,-8.428,11.990,3.676,5.418,-6.767,6.685,-5.814,-1.913,1.230,0.917,2.376,0.426,0.805,-1.477,2.719,0.620
2019.07.22 14:05:10.653,13.639,2.954,0.864,-9.607,10.450,1.926,6.287,-8.339,6.624,-6.466,0.802,0.336,1.784,1.199,0.675,-2.389,-1.735,1.111,1.362
2019.07.22 14:05:10.657,13.413,4.749,1.514,-9.287,7.787,2.006,5.594,-7.658,5.226,-5.169,2.859,0.305,1.880,1.179,0.143,-5.150,-1.225,-0.519,2.375
2019.07.22 14:05:10.661,11.714,6.702,1.815,-8.029,4.710,3.209,3.734,-5.313,2.986,-3.100,3.704,0.680,1.357,1.880,-1.029,-6.578,-0.510,-2.247,3.186
2019.07.22 14:05:10.665,9.526,8.109,1.173,-6.504,2.638,4.688,1.908,-2.503,1.075,-1.334,3.335,0.736,0.723,2.835,-2.537,-6.058,0.095,-4.047,3.291
2019.07.22 14:05:10.669,8.613,8.903,0.024,-5.049,2.974,6.030,1.413,-0.251,0.599,0.034,2.242,0.019,0.460,3.987,-3.925,-3.524,0.763,-5.613,2.506
2019.07.22 14:05:10.673,10.154,9.521,-0.353,-3.585,6.141,7.307,2.866,1.129,1.937,1.739,1.081,-1.299,0.736,5.590,-4.649,0.294,1.915,-6.478,1.144
2019.07.22 14:05:10.677,13.793,10.408,1.189,-1.923,11.128,8.692,5.866,1.959,4.567,4.329,0.291,-2.541,1.370,7.698,-4.288,3.996,3.720,-6.343,-0.143
2019.07.22 14:05:10.681,17.823,11.605,4.658,-0.108,15.972,10.102,9.288,2.685,7.422,7.301,-0.092,-3.034,1.994,9.780,-2.842,6.201,5.810,-5.338,-0.797
2019.07.22 14:05:10.685,20.365,12.755,8.712,1.526,18.931,11.179,11.957,3.439,9.482,9.234,-0.331,-2.617,2.269,10.933,-0.866,6.487,7.486,-3.972,-0.737
2019.07.22 14:05:10.689,20.640,13.481,11.466,2.627,19.525,11.610,13.218,4.024,10.233,8.915,-0.692,-1.757,2.022,10.622,0.762,5.841,8.279,-2.781,-0.402
2019.07.22 14:05:10.693,19.399,13.778,11.762,3.151,18.707,11.407,13.068,4.250,9.761,6.497,-1.204,-1.187,1.276,9.306,1.394,6.062,8.382,-1.953,-0.407
2019.07.22 14:05:10.697,18.261,14.065,9.951,3.422,18.051,10.904,11.884,4.237,8.534,3.668,-1.647,-1.352,0.232,8.313,1.106,8.357,8.562,-1.241,-1.045
2019.07.22 14:05:10.701,18.511,14.847,7.638,3.820,18.616,10.447,10.044,4.353,7.077,2.547,-1.766,-2.093,-0.783,8.915,0.752,12.168,9.569,-0.232,-2.038
2019.07.22 14:05:10.705,20.284,16.281,6.596,4.374,20.313,10.114,7.771,4.847,5.752,4.153,-1.524,-2.787,-1.402,11.287,1.459,15.295,11.516,1.267,-2.729
2019.07.22 14:05:10.709,22.665,18.020,7.673,4.660,22.196,9.718,5.267,5.557,4.700,7.646,-1.177,-2.822,-1.343,14.247,3.860,15.469,13.742,3.034,-2.576
2019.07.22 14:05:10.713,24.505,19.466,10.432,4.141,23.329,9.090,2.904,5.992,3.927,10.969,-1.087,-2.026,-0.556,16.086,7.607,12.274,15.295,4.598,-1.589
2019.07.22 14:05:10.717,25.247,20.249,13.664,2.706,23.464,8.361,1.243,5.741,3.407,12.382,-1.431,-0.754,0.729,15.933,11.499,7.858,15.662,5.584,-0.354
2019.07.22 14:05:10.721,25.139,20.514,16.267,0.938,23.035,7.942,0.794,4.848,3.128,11.674,-2.027,0.379,2.080,14.532,14.167,5.655,15.141,5.955,0.352
2019.07.22 14:05:10.725,24.779,20.783,17.779,-0.200,22.585,8.190,1.703,3.786,3.066,10.126,-2.439,0.878,3.047,13.756,14.831,7.878,14.550,5.941,0.087
2019.07.22 14:05:10.729,24.494,21.484,18.299,-0.068,22.221,9.049,3.623,3.049,3.115,9.332,-2.298,0.592,3.344,15.149,13.646,13.677,14.507,5.745,-0.989
2019.07.22 14:05:10.733,24.113,22.516,18.025,1.116,21.594,10.004,5.899,2.740,3.069,9.906,-1.576,-0.316,2.927,18.626,11.464,19.470,14.882,5.327,-2.254
2019.07.22 14:05:10.737,23.292,23.223,16.940,2.361,20.374,10.428,7.944,2.530,2.720,11.127,-0.606,-1.525,1.962,22.415,9.272,21.395,14.894,4.458,-3.059
2019.07.22 14:05:10.741,22.036,22.826,14.922,2.638,18.710,10.070,9.534,2.025,2.031,11.742,0.197,-2.705,0.755,24.333,7.710,18.114,13.801,3.006,-3.097
2019.07.22 14:05:10.745,20.880,21.014,12.096,1.698,17.184,9.260,10.849,1.161,1.287,11.144,0.692,-3.579,-0.311,23.436,6.940,11.866,11.622,1.176,-2.493
2019.07.22 14:05:10.749,20.519,18.265,9.014,0.312,16.276,8.655,12.257,0.243,1.034,9.878,1.161,-3.999,-0.847,20.726,6.810,6.907,9.289,-0.535,-1.611
2019.07.22 14:05:10.753,21.163,15.634,6.412,-0.300,15.820,8.696,14.028,-0.453,1.754,9.035,2.091,-4.058,-0.600,18.331,7.061,6.452,8.049,-1.660,-0.789
2019.07.22 14:05:10.757,22.184,14.139,4.719,0.549,14.988,9.219,16.141,-1.105,3.422,9.110,3.741,-4.162,0.356,17.816,7.403,10.394,8.555,-2.111,-0.221
2019.07.22 14:05:10.761,22.424,14.153,3.761,2.380,12.894,9.542,18.280,-2.317,5.273,9.387,5.809,-4.903,1.507,18.956,7.487,15.482,10.342,-2.232,0.003
2019.07.22 14:05:10.765,20.984,15.217,2.949,3.824,9.347,8.978,19.965,-4.548,6.051,8.456,7.497,-6.688,2.039,19.994,6.950,17.763,12.104,-2.513,-0.196
2019.07.22 14:05:10.769,17.929,16.387,1.817,3.609,5.115,7.391,20.740,-7.457,4.706,5.479,7.956,-9.325,1.252,19.142,5.610,15.426,12.588,-3.172,-0.866
2019.07.22 14:05:10.773,14.344,16.844,0.461,1.550,1.469,5.349,20.360,-9.825,1.130,1.130,6.840,-11.934,-0.973,16.128,3.654,9.949,11.441,-3.949,-1.919
2019.07.22 14:05:10.777,11.659,16.345,-0.517,-1.246,-0.670,3.757,18.930,-10.277,-3.626,-2.660,4.556,-13.364,-4.009,12.504,1.612,4.795,9.400,-4.287,-3.075
2019.07.22 14:05:10.781,10.698,15.200,-0.515,-3.116,-1.321,3.241,16.925,-8.363,-7.894,-4.028,2.039,-12.940,-6.809,10.462,0.034,2.772,7.721,-3.762,-3.960
2019.07.22 14:05:10.785,11.135,13.858,0.507,-2.975,-1.358,3.721,15.026,-5.099,-10.429,-2.559,0.180,-11.017,-8.575,11.108,-0.931,4.074,7.290,-2.408,-4.355
2019.07.22 14:05:10.789,11.750,12.445,1.890,-0.994,-1.865,4.503,13.773,-2.425,-11.221,0.390,-0.687,-8.851,-9.284,13.591,-1.675,6.366,8.084,-0.697,-4.350
2019.07.22 14:05:10.793,11.306,10.646,2.669,1.661,-3.460,4.774,13.206,-1.854,-11.467,2.706,-0.910,-7.811,-9.664,15.788,-2.826,6.711,9.328,0.808,-4.283
2019.07.22 14:05:10.797,9.409,8.010,2.181,3.750,-6.037,4.145,12.751,-3.301,-12.669,3.085,-1.181,-8.416,-10.601,15.983,-4.673,3.771,10.150,1.839,-4.435
2019.07.22 14:05:10.801,6.731,4.454,0.425,4.806,-9.015,2.854,11.508,-5.033,-15.484,1.941,-2.016,-9.954,-12.409,14.207,-6.789,-1.299,10.197,2.540,-4.758
2019.07.22 14:05:10.805,4.439,0.516,-2.069,5.237,-11.773,1.518,8.845,-4.862,-19.191,0.963,-3.435,-10.972,-14.562,12.170,-8.225,-5.777,9.743,3.246,-4.871
2019.07.22 14:05:10.809,3.230,-2.877,-4.680,5.702,-13.924,0.666,4.916,-1.744,-22.191,1.740,-5.029,-10.335,-16.109,11.890,-8.177,-7.302,9.269,4.120,-4.367
2019.07.22 14:05:10.813,2.715,-4.994,-7.062,6.340,-15.315,0.408,0.724,3.424,-23.171,4.557,-6.326,-8.062,-16.444,14.138,-6.652,-5.385,8.913,4.946,-3.206
2019.07.22 14:05:10.817,1.623,-5.801,-9.167,6.553,-15.918,0.459,-2.386,8.403,-22.048,8.288,-7.144,-5.303,-15.794,17.927,-4.565,-1.575,8.250,5.252,-1.859
2019.07.22 14:05:10.821,-1.259,-5.980,-10.995,5.522,-15.796,0.452,-3.491,11.151,-19.974,11.388,-7.654,-3.486,-15.000,21.391,-3.145,1.658,6.613,4.656,-1.033
2019.07.22 14:05:10.825,-6.041,-6.402,-12.361,3.020,-15.133,0.259,-2.602,11.152,-18.418,13.111,-8.155,-3.298,-14.758,23.276,-3.065,2.444,3.691,3.170,-1.174
2019.07.22 14:05:10.829,-11.339,-7.423,-12.919,-0.187,-14.184,0.074,-0.548,9.549,-18.072,13.952,-8.773,-4.255,-14.981,23.831,-3.975,0.490,-0.016,1.244,-2.125
2019.07.22 14:05:10.833,-14.893,-8.537,-12.407,-2.713,-13.064,0.222,1.653,8.109,-18.436,15.022,-9.335,-5.175,-14.854,24.425,-4.816,-2.925,-3.264,-0.472,-3.216
2019.07.22 14:05:10.837,-14.847,-8.669,-10.860,-3.394,-11.542,0.882,3.466,7.872,-18.368,16.967,-9.515,-5.106,-13.579,26.299,-4.680,-5.752,-4.605,-1.456,-3.742
2019.07.22 14:05:10.841,-10.885,-6.918,-8.585,-1.968,-9.102,1.953,5.045,8.571,-17.083,19.389,-9.102,-3.963,-11.185,29.528,-3.543,-6.225,-3.104,-1.527,-3.446
2019.07.22 14:05:10.845,-4.457,-3.241,-5.941,0.928,-5.374,3.180,6.857,9.169,-14.765,21.253,-8.152,-2.417,-8.687,33.014,-2.264,-3.673,1.197,-0.839,-2.648
2019.07.22 14:05:10.849,2.047,1.444,-3.129,4.337,-0.648,4.393,9.092,8.960,-12.293,21.891,-6.917,-1.192,-7.360,35.444,-1.856,1.221,7.279,0.271,-1.918
2019.07.22 14:05:10.853,6.661,5.774,-0.210,7.612,4.000,5.662,11.362,8.239,-10.389,21.703,-5.623,-0.441,-7.705,36.336,-2.588,6.769,13.572,1.447,-1.580
2019.07.22 14:05:10.857,8.815,8.723,2.717,10.563,7.228,7.203,12.968,8.024,-8.954,21.902,-4.309,0.280,-8.938,36.301,-3.679,11.074,18.556,2.394,-1.460
2019.07.22 14:05:10.861,9.326,10.055,5.369,13.091,8.307,9.099,13.486,9.093,-7.193,23.486,-2.865,1.480,-9.496,36.356,-3.826,12.936,21.253,2.888,-1.056
2019.07.22 14:05:10.865,9.482,10.189,7.368,14.749,7.693,11.057,13.144,11.223,-4.427,26.290,-1.224,3.156,-8.198,36.944,-2.190,12.422,21.439,2.786,-0.000
2019.07.22 14:05:10.869,9.956,9.627,8.506,14.744,6.769,12.416,12.636,13.280,-0.869,28.910,0.479,4.744,-5.168,37.525,0.925,10.740,19.546,2.068,1.604
2019.07.22 14:05:10.873,10.358,8.451,8.911,12.458,6.833,12.435,12.461,14.063,2.329,29.607,1.932,5.625,-1.762,37.064,4.226,9.464,16.357,0.892,3.229
2019.07.22 14:05:10.877,9.711,6.292,8.938,8.061,8.087,10.703,12.353,13.177,3.829,27.485,2.840,5.724,0.414,34.943,6.292,9.538,12.655,-0.423,4.315
2019.07.22 14:05:10.881,7.432,2.760,8.817,2.648,9.420,7.386,11.297,11.202,3.049,23.043,3.117,5.602,0.627,31.466,6.456,10.693,8.990,-1.489,4.658
2019.07.22 14:05:10.885,3.993,-2.038,8.389,-2.299,9.241,3.168,8.212,9.074,0.543,17.705,2.911,5.918,-0.620,27.517,5.075,11.673,5.631,-2.009,4.490
2019.07.22 14:05:10.889,0.719,-7.353,7.209,-5.756,6.765,-1.082,2.830,7.263,-2.472,12.759,2.428,6.719,-2.226,23.708,3.019,11.084,2.686,-1.876,4.189
2019.07.22 14:05:10.893,-1.137,-12.142,4.974,-7.656,2.749,-4.701,-3.879,5.486,-5.005,8.580,1.704,7.220,-3.517,19.812,0.881,8.278,0.254,-1.192,3.896
2019.07.22 14:05:10.897,-1.317,-15.654,1.925,-8.670,-0.925,-7.433,-10.073,3.193,-6.854,4.697,0.557,6.361,-4.753,15.040,-1.434,3.674,-1.528,-0.188,3.377
2019.07.22 14:05:10.901,-0.746,-17.786,-1.152,-9.481,-2.558,-9.370,-13.972,0.337,-8.421,0.569,-1.248,3.734,-6.699,8.968,-4.407,-1.620,-2.591,0.888,2.241
2019.07.22 14:05:10.905,-0.842,-18.980,-3.400,-10.189,-1.860,-10.708,-14.727,-2.287,-10.052,-3.662,-3.710,0.101,-9.653,2.316,-8.192,-6.495,-3.092,1.841,0.340
2019.07.22 14:05:10.909,-2.493,-19.775,-4.472,-10.327,-0.174,-11.517,-12.699,-3.525,-11.538,-7.085,-6.435,-2.979,-12.844,-3.166,-12.129,-10.293,-3.458,2.554,-1.994
2019.07.22 14:05:10.913,-5.503,-20.431,-4.746,-9.460,0.463,-11.685,-9.049,-2.783,-12.266,-8.661,-8.741,-4.202,-14.804,-5.728,-14.961,-12.786,-4.195,2.974,-4.072
2019.07.22 14:05:10.917,-8.927,-20.919,-4.969,-7.787,-1.284,-11.050,-5.022,-0.617,-11.855,-8.027,-9.987,-3.427,-14.468,-4.827,-15.634,-13.873,-5.580,3.096,-5.236
2019.07.22 14:05:10.921,-11.973,-21.234,-5.630,-6.205,-5.232,-9.608,-1.426,1.547,-10.661,-5.802,-9.908,-1.737,-12.097,-1.589,-14.083,-13.425,-7.430,2.947,-5.220
2019.07.22 14:05:10.925,-14.710,-21.701,-6.603,-5.740,-9.955,-7.644,1.446,2.372,-9.662,-3.157,-8.728,-0.586,-9.210,1.863,-11.374,-11.462,-9.186,2.561,-4.224
2019.07.22 14:05:10.929,-17.983,-22.911,-7.376,-6.796,-13.865,-5.696,3.580,1.532,-9.739,-1.051,-6.996,-0.701,-7.513,3.740,-9.059,-8.446,-10.288,1.945,-2.712
2019.07.22 14:05:10.933,-22.579,-25.284,-7.660,-8.858,-16.210,-4.353,4.987,-0.150,-10.956,0.262,-5.248,-1.613,-7.627,3.633,-8.188,-5.300,-10.580,1.051,-1.103
2019.07.22 14:05:10.937,-28.342,-28.568,-7.807,-10.876,-17.289,-3.995,5.667,-1.404,-12.429,1.115,-3.741,-2.135,-8.628,2.566,-8.675,-2.996,-10.448,-0.212,0.389
2019.07.22 14:05:10.941,-33.964,-31.733,-8.607,-12.001,-17.826,-4.600,5.717,-1.483,-12.914,1.926,-2.382,-1.390,-8.744,2.122,-9.450,-1.991,-10.524,-1.909,1.717
2019.07.22 14:05:10.945,-37.658,-33.418,-10.546,-12.083,-18.131,-5.719,5.400,-0.638,-11.621,2.822,-0.892,0.480,-6.677,3.326,-9.248,-1.988,-11.178,-3.994,2.866
2019.07.22 14:05:10.949,-38.221,-32.690,-13.166,-11.562,-17.745,-6.632,5.053,0.237,-8.654,3.727,0.949,2.447,-2.530,6.104,-7.441,-2.228,-12.162,-6.256,3.786
2019.07.22 14:05:10.953,-35.690,-29.594,-15.109,-10.919,-15.822,-6.633,4.918,0.427,-4.769,4.744,3.112,3.436,2.344,9.564,-4.351,-2.072,-12.709,-8.352,4.437
2019.07.22 14:05:10.957,-31.141,-25.110,-14.942,-10.220,-11.884,-5.298,5.065,-0.007,-0.770,6.384,5.290,3.141,6.357,12.766,-0.902,-1.343,-12.040,-9.919,4.864
2019.07.22 14:05:10.961,-25.848,-20.533,-12.185,-9.126,-6.329,-2.618,5.506,-0.321,2.940,9.300,7.032,2.193,8.736,15.340,2.059,-0.168,-9.904,-10.706,5.180
2019.07.22 14:05:10.965,-20.503,-16.712,-7.727,-7.330,-0.289,1.066,6.354,0.261,6.315,13.697,7.940,1.591,9.816,17.546,4.222,1.447,-6.779,-10.663,5.449
2019.07.22 14:05:10.969,-15.102,-13.665,-3.301,-4.953,5.003,5.261,7.841,1.922,9.303,18.927,7.853,1.912,10.450,19.862,5.772,3.764,-3.565,-9.935,5.584
2019.07.22 14:05:10.973,-9.494,-10.823,-0.377,-2.537,8.848,9.513,10.110,4.142,11.587,23.692,6.896,2.942,11.133,22.527,6.940,6.902,-1.046,-8.769,5.357
2019.07.22 14:05:10.977,-4.085,-7.672,0.692,-0.608,11.268,13.473,12.938,6.138,12.706,26.797,5.405,3.956,11.595,25.368,7.609,10.221,0.499,-7.393,4.561
2019.07.22 14:05:10.981,-0.009,-4.321,0.648,0.750,12.677,16.823,15.669,7.443,12.425,27.880,3.751,4.328,11.132,27.973,7.309,12.210,1.276,-5.941,3.185
2019.07.22 14:05:10.985,1.411,-1.555,0.525,1.942,13.377,19.183,17.502,8.137,10.967,27.589,2.162,3.943,9.328,29.982,5.647,11.287,1.638,-4.445,1.453
2019.07.22 14:05:10.989,-0.434,-0.331,0.739,3.458,13.275,20.160,17.973,8.619,8.851,27.045,0.666,3.123,6.495,31.254,2.814,7.100,1.756,-2.918,-0.288
2019.07.22 14:05:10.993,-4.875,-1.088,0.804,5.401,12.023,19.549,17.285,9.186,6.485,27.050,-0.835,2.245,3.476,31.846,-0.262,1.268,1.566,-1.444,-1.754
2019.07.22 14:05:10.997,-10.183,-3.383,-0.165,7.351,9.415,17.549,16.192,9.819,3.888,27.637,-2.409,1.446,0.999,31.924,-2.332,-3.282,0.976,-0.220,-2.824
2019.07.22 14:05:11.001,-14.471,-6.116,-2.650,8.685,5.703,14.779,15.508,10.316,0.821,28.258,-3.994,0.655,-0.849,31.691,-2.593,-4.183,0.073,0.500,-3.521
2019.07.22 14:05:11.005,-16.706,-8.236,-6.309,9.028,1.564,11.991,15.579,10.567,-2.794,28.352,-5.446,-0.183,-2.612,31.326,-1.311,-1.425,-0.894,0.535,-3.941
2019.07.22 14:05:11.009,-17.185,-9.414,-10.227,8.436,-2.267,9.631,16.103,10.645,-6.594,27.740,-6.714,-1.005,-4.953,30.868,0.155,2.340,-1.764,-0.077,-4.224
2019.07.22 14:05:11.013,-17.217,-10.220,-13.563,7.171,-5.433,7.594,16.412,10.611,-9.908,26.547,-7.957,-1.797,-8.092,30.064,0.029,3.446,-2.664,-1.037,-4.588
2019.07.22 14:05:11.017,-18.221,-11.656,-15.986,5.350,-8.154,5.394,15.948,10.260,-12.244,24.812,-9.479,-2.823,-11.612,28.321,-2.864,-0.267,-3.933,-1.895,-5.306
2019.07.22 14:05:11.021,-20.789,-14.348,-17.597,2.868,-11.013,2.677,14.561,9.130,-13.666,22.277,-11.447,-4.579,-14.737,24.947,-8.344,-7.870,-5.769,-2.274,-6.542
2019.07.22 14:05:11.025,-24.250,-17.978,-18.516,-0.279,-14.446,-0.301,12.436,6.856,-14.722,18.654,-13.601,-7.342,-16.796,19.639,-14.867,-15.948,-7.913,-2.088,-8.115
2019.07.22 14:05:11.029,-26.949,-21.356,-18.642,-3.575,-18.271,-2.641,9.776,3.623,-15.953,14.195,-15.204,-10.654,-17.512,12.918,-20.292,-20.973,-9.683,-1.610,-9.399
2019.07.22 14:05:11.033,-27.092,-23.109,-17.836,-5.949,-21.585,-3.311,6.592,0.286,-17.380,9.977,-15.372,-13.236,-16.966,6.138,-22.976,-21.690,-10.407,-1.323,-9.551
2019.07.22 14:05:11.037,-23.719,-22.510,-16.305,-6.288,-23.155,-1.831,2.824,-2.018,-18.420,7.526,-13.607,-13.594,-15.379,0.936,-22.554,-19.723,-9.921,-1.630,-8.026
2019.07.22 14:05:11.041,-17.300,-19.846,-14.682,-4.149,-22.115,1.404,-1.324,-2.528,-18.281,7.922,-10.194,-10.987,-12.945,-1.597,-19.940,-17.985,-8.694,-2.601,-5.042
2019.07.22 14:05:11.045,-9.624,-16.091,-13.562,-0.079,-18.544,5.442,-5.159,-1.284,-16.497,11.044,-6.137,-6.036,-9.828,-1.480,-16.603,-18.181,-7.435,-3.910,-1.619
2019.07.22 14:05:11.049,-2.997,-12.134,-12.824,4.761,-13.527,9.518,-7.680,0.983,-13.176,15.577,-2.629,-0.454,-6.231,0.262,-13.616,-19.388,-6.480,-5.015,0.945
2019.07.22 14:05:11.053,0.865,-8.193,-11.435,9.399,-8.612,13.585,-8.113,3.415,-8.823,19.831,-0.396,3.992,-2.414,2.309,-11.106,-18.808,-5.484,-5.464,1.850
2019.07.22 14:05:11.057,1.648,-3.894,-8.137,13.588,-4.983,18.161,-6.451,5.548,-4.007,22.751,0.662,6.577,1.395,3.844,-8.441,-14.069,-3.739,-5.148,1.306
