Time,Fp1-CPz,Fp2-CPz,F3-CPz,F4-CPz,F7-CPz,F8-CPz,C3-CPz,C4-CPz,T7-CPz,T8-CPz,P3-CPz,P4-CPz,P7-CPz,P8-CPz,O1-CPz,O2-CPz,Fz-CPz,Cz-CPz,Pz-CPz
2019.07.22 14:06:20.121,78.734,39.604,72.778,56.434,55.571,53.243,-59.740,-32.010,-12.444,-1.960,-12.216,0.933,14.218,-86.329,27.912,-27.521,51.359,40.121,34.408
2019.07.22 14:06:20.125,45.717,30.494,43.978,32.048,31.344,34.696,-36.295,-21.145,-4.999,-9.441,-5.041,-5.250,6.348,-63.018,9.840,-19.980,28.915,19.812,13.112
2019.07.22 14:06:20.129,7.819,17.298,9.513,2.338,3.496,7.670,-13.152,-4.653,3.793,-13.817,2.567,-9.626,-3.105,-26.058,-10.773,-11.828,1.936,-3.502,-10.177
2019.07.22 14:06:20.133,-14.441,8.227,-11.518,-14.809,-13.534,-10.224,-1.137,8.383,8.739,-12.185,5.655,-9.735,-8.213,2.137,-21.895,-6.326,-13.507,-16.295,-22.386
2019.07.22 14:06:20.137,-13.129,6.829,-11.272,-12.209,-13.861,-10.318,-3.009,12.000,7.551,-5.981,2.975,-5.993,-6.997,7.610,-19.203,-4.659,-10.726,-13.615,-19.067
2019.07.22 14:06:20.141,3.330,10.461,2.951,2.999,-3.221,2.322,-12.626,6.846,1.922,0.244,-2.570,-1.391,-2.361,-7.204,-8.196,-6.053,4.176,-1.371,-6.411
2019.07.22 14:06:20.145,17.994,13.273,15.804,16.200,6.267,14.383,-20.434,-1.256,-4.289,2.157,-6.585,0.706,0.620,-27.620,0.951,-8.708,18.104,9.261,4.453
2019.07.22 14:06:20.149,18.356,11.104,15.901,16.757,5.348,15.145,-20.711,-6.190,-8.064,-1.453,-6.635,-1.063,-1.226,-38.777,1.380,-10.843,21.042,10.523,6.014
2019.07.22 14:06:20.153,4.593,4.473,3.463,5.203,-6.084,4.141,-14.994,-5.923,-9.020,-8.227,-3.786,-5.297,-6.902,-36.015,-5.884,-11.408,12.622,3.149,-0.809
2019.07.22 14:06:20.157,-12.385,-2.331,-11.582,-8.751,-19.976,-9.774,-9.493,-3.140,-8.794,-14.249,-1.203,-9.126,-12.343,-26.129,-13.896,-10.372,0.776,-5.570,-8.795
2019.07.22 14:06:20.161,-20.505,-4.945,-18.515,-14.861,-26.941,-16.296,-9.187,-2.128,-8.924,-16.754,-1.233,-10.403,-13.709,-19.774,-16.012,-8.601,-5.568,-8.436,-11.006
2019.07.22 14:06:20.165,-15.677,-2.244,-14.110,-10.261,-23.250,-11.689,-13.684,-4.807,-9.248,-15.511,-3.452,-9.039,-10.152,-22.106,-10.991,-7.313,-3.425,-4.036,-6.183
2019.07.22 14:06:20.169,-3.671,3.247,-3.968,-0.585,-12.773,-0.708,-18.042,-9.237,-8.180,-12.154,-5.204,-6.591,-3.994,-29.263,-3.071,-7.288,2.964,2.877,1.127
2019.07.22 14:06:20.173,5.782,7.824,3.251,5.779,-3.040,8.310,-17.439,-11.567,-4.462,-8.430,-3.984,-4.706,1.476,-32.809,2.389,-8.223,6.766,5.993,5.131
2019.07.22 14:06:20.177,7.098,9.651,3.174,4.919,0.824,10.505,-11.461,-9.499,1.334,-4.942,0.412,-3.836,4.562,-27.560,3.509,-8.770,4.629,2.802,3.726
2019.07.22 14:06:20.181,2.525,9.873,-1.478,0.085,-0.632,7.757,-4.421,-4.220,6.951,-1.273,5.738,-3.232,6.002,-15.924,2.821,-7.380,-0.904,-3.709,-0.304
2019.07.22 14:06:20.185,-0.934,11.113,-4.373,-1.895,-2.834,5.999,-1.663,0.714,10.187,2.952,9.119,-2.005,7.702,-5.437,4.158,-3.477,-4.197,-8.028,-2.372
2019.07.22 14:06:20.189,1.971,14.888,-1.669,3.114,-1.693,9.478,-5.187,2.434,10.682,7.247,9.244,-0.128,10.740,-2.154,8.696,1.952,-1.646,-6.828,-0.341
2019.07.22 14:06:20.193,10.490,20.215,4.741,13.060,3.069,17.084,-12.261,1.063,10.201,10.459,7.155,1.565,14.436,-5.810,13.839,6.889,5.409,-1.400,3.857
2019.07.22 14:06:20.197,19.060,24.472,9.339,21.660,8.295,23.641,-17.966,-0.605,11.122,11.739,5.131,2.308,17.157,-10.663,15.798,9.660,12.176,3.929,6.378
2019.07.22 14:06:20.201,22.296,25.594,8.143,23.740,10.604,24.583,-19.272,0.400,14.397,11.328,4.766,2.309,17.898,-10.826,13.274,10.081,14.620,5.646,5.173
2019.07.22 14:06:20.205,19.205,23.664,2.169,19.236,9.316,19.768,-17.155,4.762,18.676,10.426,5.846,2.696,17.106,-5.204,8.751,9.432,12.572,3.721,1.785
2019.07.22 14:06:20.209,13.292,20.624,-3.705,12.710,6.608,13.286,-15.176,10.484,21.327,10.275,6.830,4.518,16.058,2.114,6.185,9.237,9.255,1.014,-0.247
2019.07.22 14:06:20.213,9.029,18.553,-5.158,9.210,5.153,9.793,-16.043,14.687,20.503,11.268,6.329,7.680,15.504,5.914,7.277,9.872,8.036,0.346,1.245
2019.07.22 14:06:20.217,8.163,18.083,-2.064,10.268,5.655,10.769,-19.253,15.926,16.584,12.818,4.285,10.842,14.974,4.497,9.855,10.249,9.507,2.013,5.061
2019.07.22 14:06:20.221,8.991,18.247,1.760,13.310,6.532,13.811,-21.733,15.042,11.898,14.002,1.926,12.426,13.430,0.810,9.949,8.898,11.370,3.855,7.777
2019.07.22 14:06:20.225,8.750,17.660,2.195,14.508,5.813,15.196,-20.700,14.013,9.006,14.316,0.717,11.892,10.623,-0.635,5.717,5.554,10.926,3.538,6.901
2019.07.22 14:06:20.229,6.511,15.824,-1.550,12.232,3.270,13.131,-16.115,13.993,8.957,13.892,1.259,10.158,7.759,1.954,-0.437,1.771,7.660,0.783,3.142
2019.07.22 14:06:20.233,3.811,13.353,-6.510,8.036,0.702,8.838,-10.650,14.345,10.794,13.063,3.008,8.787,6.702,6.041,-3.679,-0.139,3.582,-2.484,-0.238
2019.07.22 14:06:20.237,2.686,11.078,-8.839,4.650,0.127,4.836,-7.370,13.414,12.520,11.820,4.854,8.612,8.286,7.129,-1.081,0.915,1.159,-4.031,-0.359
2019.07.22 14:06:20.241,3.254,9.021,-7.248,3.152,1.685,2.354,-7.250,10.225,12.618,9.737,5.934,8.990,11.271,2.812,5.334,3.550,0.931,-3.409,2.700
2019.07.22 14:06:20.245,3.332,6.299,-3.896,2.028,3.266,0.375,-8.608,5.525,10.932,6.467,6.029,8.349,13.028,-5.097,9.751,4.623,1.041,-2.286,5.969
2019.07.22 14:06:20.249,0.511,2.067,-2.162,-1.101,2.321,-2.916,-8.730,1.261,8.428,2.312,5.405,5.572,11.561,-12.147,7.235,1.526,-0.943,-2.784,6.188
2019.07.22 14:06:20.253,-5.303,-3.466,-3.519,-6.878,-1.795,-7.857,-6.092,-0.958,6.266,-1.705,4.451,1.060,7.240,-14.962,-1.916,-5.661,-5.653,-5.430,2.639
2019.07.22 14:06:20.257,-11.410,-8.991,-6.420,-13.249,-7.090,-12.513,-1.287,-1.060,5.071,-4.423,3.517,-3.428,2.751,-13.794,-11.927,-13.921,-11.225,-8.601,-2.262
2019.07.22 14:06:20.261,-14.532,-13.206,-8.098,-17.117,-10.544,-14.198,3.917,-0.349,4.867,-5.295,2.972,-6.028,1.175,-11.826,-15.863,-19.238,-14.886,-9.955,-5.037
2019.07.22 14:06:20.265,-13.833,-16.131,-7.450,-17.086,-10.664,-11.934,8.260,-0.261,5.486,-4.682,3.216,-6.087,3.672,-12.080,-11.107,-19.301,-15.377,-8.516,-4.025
2019.07.22 14:06:20.269,-12.041,-19.429,-6.218,-14.810,-8.734,-7.552,11.833,-1.192,6.888,-3.447,4.469,-4.514,8.627,-14.802,-1.527,-14.927,-14.007,-5.533,-0.582
2019.07.22 14:06:20.273,-13.538,-25.349,-7.343,-13.674,-7.653,-4.358,15.461,-2.375,9.071,-2.207,6.506,-2.924,12.933,-17.528,5.518,-9.194,-13.416,-3.401,2.320
2019.07.22 14:06:20.277,-20.982,-35.143,-12.017,-15.964,-9.384,-4.499,19.447,-2.765,11.758,-0.907,8.687,-2.359,14.392,-17.556,4.996,-5.083,-15.231,-3.641,2.746
2019.07.22 14:06:20.281,-33.305,-48.261,-18.213,-20.987,-13.304,-7.320,23.007,-2.008,14.283,0.957,10.408,-2.606,13.276,-14.424,-1.854,-3.533,-18.703,-5.755,1.354
2019.07.22 14:06:20.285,-46.772,-63.004,-22.134,-25.750,-16.904,-10.142,24.897,-0.611,15.889,3.680,11.619,-2.605,11.868,-10.227,-8.580,-3.325,-21.528,-7.862,0.603
2019.07.22 14:06:20.289,-58.178,-78.039,-21.415,-27.562,-18.250,-10.711,24.551,0.728,16.156,6.866,12.889,-1.488,12.401,-7.661,-8.690,-2.610,-22.051,-8.457,2.422
2019.07.22 14:06:20.293,-67.439,-93.410,-17.276,-26.276,-18.028,-9.152,22.548,1.854,15.162,9.549,14.832,0.654,15.145,-7.725,-0.780,-0.610,-20.845,-7.651,6.461
2019.07.22 14:06:20.297,-77.419,-110.152,-13.741,-24.292,-19.327,-7.745,19.973,3.171,13.212,10.823,17.326,2.887,18.178,-9.141,10.440,1.959,-20.264,-6.847,10.367
2019.07.22 14:06:20.301,-91.216,-128.803,-14.553,-24.414,-25.253,-8.791,17.372,4.956,10.452,10.461,19.258,4.240,18.988,-9.834,17.858,3.916,-22.403,-7.270,11.752
2019.07.22 14:06:20.305,-109.222,-148.133,-20.374,-27.462,-36.315,-12.493,14.387,6.708,6.806,9.063,19.167,4.490,16.532,-8.903,17.356,4.944,-27.265,-8.772,10.068
2019.07.22 14:06:20.309,-128.416,-165.250,-28.523,-31.656,-49.731,-16.669,10.473,7.317,2.371,7.642,16.367,4.294,12.085,-7.209,10.602,5.888,-32.715,-10.003,6.846
2019.07.22 14:06:20.313,-144.372,-177.130,-35.306,-34.173,-61.225,-18.501,5.934,6.020,-2.138,7.036,11.643,4.653,8.231,-6.146,3.270,7.761,-36.203,-9.740,4.272
2019.07.22 14:06:20.317,-154.283,-182.462,-38.827,-33.448,-67.868,-16.769,2.125,3.290,-5.443,7.544,6.866,6.208,6.870,-5.952,0.390,10.468,-36.709,-8.088,3.461
2019.07.22 14:06:20.321,-158.580,-182.399,-39.958,-30.293,-69.775,-12.702,0.424,0.755,-6.425,8.967,3.753,8.917,7.878,-5.294,2.681,12.613,-35.303,-6.433,3.907
2019.07.22 14:06:20.325,-160.061,-179.689,-40.911,-27.051,-69.487,-8.878,0.844,0.051,-5.019,10.884,2.758,12.246,9.430,-2.587,6.634,12.738,-33.974,-6.218,4.383
2019.07.22 14:06:20.329,-161.473,-176.893,-42.941,-25.686,-69.744,-7.243,1.635,1.517,-2.508,12.893,2.976,15.581,9.665,2.252,7.970,10.969,-33.886,-7.660,4.270
2019.07.22 14:06:20.333,-163.599,-175.003,-45.294,-26.455,-71.511,-7.916,0.479,3.870,-0.805,14.708,3.137,18.485,8.285,7.373,5.425,9.502,-34.603,-9.599,4.060
2019.07.22 14:06:20.337,-165.176,-173.360,-46.189,-28.110,-73.670,-9.603,-3.580,5.214,-1.150,16.171,2.824,20.690,6.842,10.440,1.805,11.266,-34.821,-10.562,4.659
2019.07.22 14:06:20.341,-164.386,-170.701,-44.717,-29.184,-74.322,-10.964,-9.089,4.615,-3.162,17.299,2.847,22.006,7.525,10.678,1.611,17.657,-33.770,-10.062,6.295
2019.07.22 14:06:20.345,-160.462,-166.377,-41.796,-29.104,-72.413,-11.619,-13.007,2.912,-5.049,18.326,4.459,22.358,11.444,9.608,7.323,27.158,-31.953,-8.933,8.145
2019.07.22 14:06:20.349,-154.184,-160.843,-39.315,-28.272,-68.399,-12.013,-12.833,2.069,-4.870,19.585,8.100,21.912,17.720,9.670,17.317,36.043,-30.589,-8.436,9.020
2019.07.22 14:06:20.353,-147.184,-155.218,-38.370,-27.323,-63.672,-12.558,-8.374,3.552,-1.965,21.218,12.779,21.070,23.981,11.885,26.921,40.714,-30.398,-8.990,8.408
2019.07.22 14:06:20.357,-140.913,-150.463,-38.300,-26.465,-59.513,-13.054,-1.765,7.073,2.494,22.889,16.652,20.201,27.800,14.652,31.593,39.903,-30.910,-9.710,6.873
2019.07.22 14:06:20.361,-136.151,-146.859,-37.436,-25.531,-56.515,-12.983,4.177,10.730,6.221,23.798,18.334,19.278,27.993,14.858,29.733,35.089,-30.932,-9.177,5.427
2019.07.22 14:06:20.365,-133.117,-144.069,-34.843,-24.513,-54.764,-12.253,7.846,12.435,7.241,23.128,17.817,17.789,24.945,10.470,23.190,28.976,-29.693,-6.737,4.533
2019.07.22 14:06:20.369,-131.695,-141.521,-31.378,-23.847,-54.264,-11.506,9.478,11.487,4.996,20.663,16.273,15.132,19.975,2.416,15.487,23.413,-27.568,-3.159,3.730
2019.07.22 14:06:20.373,-131.318,-138.692,-29.070,-24.020,-55.017,-11.540,10.233,9.051,0.442,17.098,14.950,11.263,14.400,-5.853,9.416,18.505,-25.705,-0.077,2.231
2019.07.22 14:06:20.377,-130.742,-135.126,-29.344,-24.869,-56.665,-12.383,10.772,7.218,-4.763,13.738,14.170,7.034,9.021,-10.788,5.809,13.506,-24.943,1.285,-0.078
2019.07.22 14:06:20.381,-128.233,-130.351,-31.705,-25.370,-58.197,-12.990,10.697,7.473,-9.243,11.735,13.296,3.861,4.257,-11.168,4.032,8.474,-25.018,0.980,-2.262
2019.07.22 14:06:20.385,-122.408,-123.957,-34.043,-24.297,-58.234,-12.008,9.278,9.771,-12.364,11.421,11.612,2.841,0.552,-8.591,3.318,5.006,-24.788,0.096,-3.008
2019.07.22 14:06:20.389,-113.180,-115.823,-34.260,-21.256,-55.817,-9.008,6.605,12.868,-14.022,12.259,9.270,3.991,-1.444,-5.784,3.616,5.220,-23.207,-0.299,-1.773
2019.07.22 14:06:20.393,-101.978,-106.296,-31.755,-17.144,-51.052,-5.044,3.908,15.470,-14.202,13.424,7.365,6.236,-1.171,-4.307,5.334,9.783,-20.151,-0.039,0.656
2019.07.22 14:06:20.397,-90.874,-96.065,-27.517,-13.529,-45.022,-1.917,2.621,17.185,-12.811,14.540,7.063,8.205,1.353,-3.573,8.501,16.767,-16.366,0.171,2.765
2019.07.22 14:06:20.401,-81.227,-85.816,-22.919,-11.412,-39.005,-0.702,3.026,18.545,-9.930,15.923,8.540,9.236,5.276,-1.880,12.315,22.549,-12.706,-0.435,3.567
2019.07.22 14:06:20.405,-72.973,-75.939,-18.473,-10.484,-33.675,-0.845,3.776,20.201,-6.143,18.134,10.731,9.796,9.194,1.667,15.579,24.258,-9.461,-1.909,3.426
2019.07.22 14:06:20.409,-65.154,-66.556,-13.757,-9.563,-28.980,-0.662,2.869,22.089,-2.508,21.217,12.136,10.948,11.808,6.093,17.610,21.923,-6.442,-3.583,3.674
2019.07.22 14:06:20.413,-57.233,-57.800,-8.513,-7.860,-24.722,1.113,-0.727,23.302,-0.077,24.319,12.005,13.307,12.525,9.221,18.744,18.510,-3.669,-4.772,5.357
2019.07.22 14:06:20.417,-49.941,-50.024,-3.705,-5.916,-21.208,4.083,-6.190,22.738,0.696,26.045,10.865,16.331,11.619,9.354,19.891,17.697,-1.864,-5.448,8.204
2019.07.22 14:06:20.421,-44.822,-43.682,-1.326,-5.293,-19.230,6.365,-11.497,19.938,0.161,25.344,9.922,18.546,9.855,6.431,21.511,21.000,-2.094,-6.215,10.741
2019.07.22 14:06:20.425,-42.774,-38.958,-2.894,-7.215,-19.327,6.092,-15.029,15.435,-0.888,22.205,9.889,18.561,7.886,1.740,22.896,26.461,-4.769,-7.609,11.451
2019.07.22 14:06:20.429,-42.895,-35.516,-7.927,-11.309,-20.998,2.965,-16.718,10.388,-1.853,17.638,10.282,16.091,5.828,-3.361,22.466,29.979,-8.905,-9.420,9.994
2019.07.22 14:06:20.433,-42.755,-32.644,-13.817,-15.593,-22.706,-1.452,-17.762,5.895,-2.734,12.964,9.826,12.192,3.299,-8.404,18.947,28.297,-12.452,-10.736,7.437
2019.07.22 14:06:20.437,-40.006,-29.727,-17.409,-17.810,-22.807,-4.924,-19.270,2.527,-3.961,9.007,7.610,8.561,-0.111,-13.584,12.539,21.443,-13.585,-10.709,5.341
2019.07.22 14:06:20.441,-34.068,-26.588,-17.068,-17.018,-20.700,-6.170,-21.122,0.376,-5.829,5.820,3.977,6.446,-4.276,-18.711,5.146,12.793,-11.932,-9.349,4.511
2019.07.22 14:06:20.445,-26.453,-23.360,-13.571,-14.142,-17.163,-5.537,-22.135,-0.608,-7.989,3.109,0.367,5.976,-8.257,-22.537,-0.579,6.748,-8.719,-7.581,4.489
2019.07.22 14:06:20.449,-19.454,-19.982,-9.138,-11.048,-13.559,-4.219,-21.320,-0.387,-9.437,0.892,-1.742,6.342,-10.547,-23.298,-2.725,5.794,-5.666,-6.475,4.143
2019.07.22 14:06:20.453,-14.271,-15.823,-5.514,-8.979,-10.553,-2.860,-19.009,1.058,-9.025,-0.227,-1.860,6.577,-9.747,-20.100,-1.117,9.095,-3.560,-6.332,2.783
2019.07.22 14:06:20.457,-10.149,-9.919,-2.758,-7.681,-7.508,-0.891,-16.709,3.442,-6.142,0.524,-0.623,6.282,-5.323,-13.909,2.846,13.543,-1.732,-6.463,0.793
2019.07.22 14:06:20.461,-5.231,-1.779,0.275,-5.938,-3.161,2.746,-15.763,6.057,-1.123,3.316,1.018,5.767,1.983,-7.166,7.278,16.304,1.135,-5.892,-0.720
2019.07.22 14:06:20.465,1.649,7.878,4.325,-2.945,2.951,8.166,-16.062,7.994,4.850,7.253,2.722,5.621,10.343,-2.249,10.981,16.838,5.584,-4.353,-0.891
2019.07.22 14:06:20.469,9.792,17.167,8.567,0.722,9.574,13.774,-16.073,8.590,10.240,10.662,4.929,6.135,17.545,-0.038,13.841,16.879,10.594,-2.665,0.203
2019.07.22 14:06:20.473,17.084,24.006,11.016,3.414,14.267,17.010,-14.270,7.761,13.736,11.985,8.108,7.070,21.863,0.240,16.289,18.517,14.172,-2.100,1.680
2019.07.22 14:06:20.477,21.634,27.389,10.178,3.725,15.080,16.131,-10.691,6.011,14.656,10.658,11.825,7.878,22.645,-0.145,18.397,22.006,14.831,-3.277,2.614
2019.07.22 14:06:20.481,23.205,28.002,6.476,1.635,12.083,11.574,-7.145,4.133,13.063,7.361,14.610,8.147,20.380,-0.785,19.454,25.132,12.748,-5.531,2.721
2019.07.22 14:06:20.485,23.213,27.679,2.134,-1.472,7.469,5.743,-5.724,2.842,9.639,3.501,14.897,7.862,16.306,-2.436,18.431,24.717,9.629,-7.366,2.382
2019.07.22 14:06:20.489,23.401,28.076,-0.432,-3.932,4.042,1.349,-6.820,2.525,5.410,0.330,12.321,7.343,11.838,-6.033,14.964,19.178,7.416,-7.610,2.105
2019.07.22 14:06:20.493,24.379,29.570,-0.389,-5.070,3.251,-0.401,-8.427,3.162,1.404,-1.672,8.272,6.957,8.123,-11.356,10.029,10.173,6.910,-6.339,2.004
2019.07.22 14:06:20.497,25.319,31.208,1.058,-5.565,4.274,-0.366,-7.481,4.354,-1.654,-2.807,5.126,6.870,5.853,-16.658,5.657,1.974,7.396,-4.796,1.783
2019.07.22 14:06:20.501,25.006,31.676,1.849,-6.704,4.872,-0.449,-2.279,5.430,-3.510,-3.674,4.703,6.996,5.294,-19.699,3.811,-1.121,7.476,-4.396,1.179
2019.07.22 14:06:20.505,23.239,30.466,0.844,-9.227,3.299,-1.943,5.966,5.649,-4.330,-4.628,7.107,7.103,6.372,-19.374,5.211,2.403,6.325,-5.643,0.347
2019.07.22 14:06:20.509,21.308,28.313,-1.321,-12.774,-0.242,-4.602,13.741,4.523,-4.454,-5.576,10.848,6.949,8.753,-16.579,8.979,10.221,4.325,-7.822,-0.225
2019.07.22 14:06:20.513,21.121,26.616,-2.914,-16.292,-3.701,-7.098,17.578,2.129,-4.116,-6.182,14.059,6.349,11.919,-13.579,13.331,17.599,2.651,-9.627,-0.210
2019.07.22 14:06:20.517,23.736,26.416,-2.600,-18.897,-4.698,-8.283,16.312,-0.811,-3.325,-6.250,15.776,5.203,15.272,-12.403,16.728,20.337,2.300,-10.128,0.136
2019.07.22 14:06:20.521,28.582,27.809,-0.410,-20.356,-2.213,-8.119,11.553,-3.206,-1.981,-5.945,16.278,3.523,18.251,-13.574,18.565,17.210,3.439,-9.284,0.082
2019.07.22 14:06:20.525,33.991,30.209,2.593,-20.811,2.828,-7.488,6.190,-4.136,-0.121,-5.711,16.338,1.466,20.384,-16.093,18.909,10.312,5.553,-7.681,-1.018
2019.07.22 14:06:20.529,38.514,33.109,5.484,-20.154,8.387,-7.200,2.290,-3.307,1.919,-5.953,16.183,-0.676,21.249,-18.538,17.681,3.258,8.099,-5.881,-3.188
2019.07.22 14:06:20.533,41.854,36.559,8.304,-17.798,12.786,-7.163,0.073,-1.134,3.577,-6.738,15.156,-2.583,20.437,-20.226,14.206,-1.366,10.962,-4.013,-5.796
2019.07.22 14:06:20.537,44.672,40.910,11.772,-13.176,15.619,-6.474,-1.413,1.602,4.337,-7.710,12.384,-4.032,17.642,-21.502,7.714,-3.434,14.297,-1.927,-8.039
2019.07.22 14:06:20.541,47.574,46.106,16.206,-6.558,17.539,-4.318,-2.819,4.213,3.995,-8.272,7.823,-4.962,12.922,-23.067,-1.516,-4.757,17.993,0.363,-9.493
2019.07.22 14:06:20.545,50.306,51.246,20.749,0.639,19.290,-0.843,-3.673,6.341,2.737,-7.942,2.690,-5.431,6.954,-25.140,-11.461,-7.212,21.385,2.452,-10.263
2019.07.22 14:06:20.549,51.949,54.951,23.746,6.459,20.946,2.768,-2.931,7.840,1.003,-6.672,-1.185,-5.523,1.008,-27.248,-19.002,-11.124,23.577,3.793,-10.667
2019.07.22 14:06:20.553,51.893,56.283,24.005,9.539,21.959,5.070,-0.267,8.518,-0.752,-4.950,-2.595,-5.324,-3.521,-28.772,-21.749,-15.140,24.143,4.175,-10.823
2019.07.22 14:06:20.557,50.635,55.438,21.851,9.884,21.847,5.309,3.190,8.067,-2.220,-3.587,-1.784,-4.988,-5.818,-29.621,-19.771,-17.547,23.531,3.944,-10.576
2019.07.22 14:06:20.561,49.532,53.565,18.993,8.643,20.781,3.770,5.446,6.320,-3.287,-3.287,-0.178,-4.794,-6.145,-30.315,-15.761,-17.826,22.755,3.724,-9.800
2019.07.22 14:06:20.565,49.636,51.804,17.233,7.099,19.484,1.349,5.106,3.601,-4.001,-4.225,0.748,-5.039,-5.696,-31.371,-13.262,-17.106,22.573,3.893,-8.721
2019.07.22 14:06:20.569,50.619,50.370,17.089,5.714,18.539,-1.177,2.464,0.795,-4.539,-5.896,0.549,-5.786,-5.829,-32.618,-14.135,-17.124,22.842,4.290,-7.851
2019.07.22 14:06:20.573,50.821,48.497,17.483,4.011,17.789,-3.527,-0.700,-1.049,-5.165,-7.373,-0.013,-6.646,-7.143,-33.141,-17.171,-18.618,22.632,4.435,-7.549
2019.07.22 14:06:20.577,48.547,45.363,16.760,1.336,16.443,-5.681,-2.390,-1.341,-6.116,-7.844,0.262,-6.861,-9.062,-31.983,-19.038,-20.522,21.015,4.019,-7.611
2019.07.22 14:06:20.581,43.607,41.214,14.172,-2.198,13.875,-7.399,-1.679,-0.319,-7.416,-7.097,1.970,-5.734,-10.248,-29.006,-16.910,-20.698,17.907,3.207,-7.351
2019.07.22 14:06:20.585,37.825,37.677,10.607,-5.426,10.457,-8.044,0.996,1.148,-8.719,-5.623,4.657,-3.151,-9.579,-25.133,-10.761,-17.620,14.272,2.465,-6.188
2019.07.22 14:06:20.589,33.982,36.875,7.968,-6.749,7.642,-6.936,4.567,2.216,-9.368,-4.255,7.242,0.206,-6.961,-21.732,-3.471,-11.649,11.536,2.089,-4.239
2019.07.22 14:06:20.593,33.947,39.935,7.761,-5.172,7.137,-3.923,8.297,2.663,-8.713,-3.584,8.872,3.183,-3.388,-19.676,1.383,-4.847,10.714,1.933,-2.360
2019.07.22 14:06:20.597,37.413,46.074,10.047,-0.943,9.709,0.375,12.129,2.967,-6.532,-3.575,9.467,4.838,-0.218,-18.882,2.298,0.487,11.904,1.607,-1.524
2019.07.22 14:06:20.601,42.230,53.018,13.556,4.660,14.555,4.905,16.284,3.826,-3.238,-3.645,9.573,4.977,1.764,-18.669,0.904,3.345,14.459,0.962,-2.039
2019.07.22 14:06:20.605,46.079,58.487,16.773,10.126,19.737,8.832,20.698,5.522,0.317,-3.135,9.745,4.143,2.764,-18.557,0.384,4.363,17.568,0.389,-3.304
2019.07.22 14:06:20.609,48.180,61.627,19.044,14.465,23.401,11.969,24.965,7.665,3.337,-1.803,10.066,3.066,3.580,-18.726,2.561,4.797,20.702,0.571,-4.320
2019.07.22 14:06:20.613,49.707,63.291,20.830,17.402,24.890,14.635,28.795,9.476,5.508,0.018,10.159,2.028,4.756,-19.741,6.068,5.102,23.618,1.884,-4.561
2019.07.22 14:06:20.617,52.589,64.977,22.989,19.037,24.934,17.093,32.411,10.355,6.997,1.687,9.609,0.673,5.969,-21.840,7.255,4.422,26.045,3.973,-4.416
2019.07.22 14:06:20.621,57.625,67.286,25.763,19.404,24.804,19.073,36.298,10.222,8.035,2.677,8.317,-1.583,6.179,-24.516,3.199,1.449,27.487,5.930,-4.817
2019.07.22 14:06:20.625,63.376,69.140,28.332,18.327,25.099,19.780,40.440,9.391,8.436,2.806,6.497,-4.912,4.399,-26.829,-5.608,-4.113,27.394,6.963,-6.366
2019.07.22 14:06:20.629,66.739,68.409,29.243,15.634,25.115,18.393,43.806,8.146,7.524,2.130,4.379,-8.767,0.502,-28.208,-15.157,-10.850,25.570,6.996,-8.731
2019.07.22 14:06:20.633,64.884,63.500,27.382,11.479,23.315,14.688,44.768,6.457,4.613,0.686,1.988,-12.191,-4.559,-28.992,-20.624,-16.410,22.442,6.672,-10.853
2019.07.22 14:06:20.637,57.236,54.728,22.740,6.467,18.610,9.324,42.329,4.115,-0.271,-1.623,-0.738,-14.507,-9.249,-30.184,-19.807,-19.170,18.928,6.755,-11.800
2019.07.22 14:06:20.641,46.165,44.463,16.523,1.519,11.504,3.649,37.178,1.157,-6.024,-4.841,-3.627,-15.782,-12.268,-32.559,-14.587,-19.399,15.983,7.452,-11.521
2019.07.22 14:06:20.645,35.879,35.937,10.594,-2.398,4.240,-0.850,31.595,-1.850,-10.807,-8.631,-6.091,-16.670,-13.101,-35.848,-9.275,-18.850,14.171,8.257,-10.847
2019.07.22 14:06:20.649,30.197,31.537,6.652,-4.521,-0.270,-3.127,28.086,-3.989,-12.970,-12.165,-7.346,-17.745,-12.008,-38.707,-7.217,-19.113,13.536,8.432,-10.752
2019.07.22 14:06:20.653,30.588,31.702,5.572,-4.488,-0.099,-2.942,27.756,-4.555,-11.941,-14.422,-6.909,-18.907,-9.614,-39.516,-8.402,-20.111,13.783,7.696,-11.506
2019.07.22 14:06:20.657,35.612,35.032,7.132,-2.492,4.534,-0.903,29.673,-3.572,-8.487,-14.743,-4.949,-19.392,-6.516,-37.435,-9.934,-20.092,14.518,6.493,-12.471
2019.07.22 14:06:20.661,42.014,39.362,10.173,0.663,11.340,1.802,31.740,-1.813,-4.185,-13.252,-2.188,-18.412,-3.174,-32.935,-8.815,-17.227,15.370,5.580,-12.671
2019.07.22 14:06:20.665,46.705,42.989,13.085,3.756,17.261,3.910,32.323,-0.300,-0.507,-10.797,0.592,-15.899,-0.015,-27.495,-4.608,-11.475,15.977,5.333,-11.631
2019.07.22 14:06:20.669,48.398,45.300,14.497,5.663,20.146,4.659,31.288,0.363,1.872,-8.439,3.025,-12.730,2.536,-22.746,0.271,-5.098,16.021,5.368,-9.743
2019.07.22 14:06:20.673,47.964,46.609,13.889,5.999,19.778,4.171,29.659,0.323,3.140,-6.853,5.229,-10.196,4.239,-19.668,2.833,-1.220,15.397,4.854,-7.874
2019.07.22 14:06:20.677,47.433,47.541,11.823,5.423,17.684,3.398,28.300,0.254,3.890,-6.035,7.469,-9.112,5.291,-18.279,2.302,-1.479,14.402,3.239,-6.604
2019.07.22 14:06:20.681,48.422,48.509,9.602,5.293,15.973,3.565,26.910,0.803,4.598,-5.472,9.742,-9.264,6.345,-17.828,0.948,-4.634,13.704,0.776,-5.790
2019.07.22 14:06:20.685,51.051,49.562,8.492,6.764,16.054,5.402,24.257,2.152,5.417,-4.578,11.682,-9.616,8.132,-17.243,2.173,-7.326,14.000,-1.611,-4.804
2019.07.22 14:06:20.689,54.029,50.572,8.980,9.918,18.048,8.649,19.469,3.985,6.329,-3.042,12.850,-9.110,10.899,-15.596,7.432,-6.487,15.559,-2.996,-3.200
2019.07.22 14:06:20.693,55.744,51.453,10.554,13.581,21.104,12.206,13.183,5.810,7.395,-0.898,13.110,-7.435,14.106,-12.490,14.653,-1.614,18.000,-3.090,-1.184
2019.07.22 14:06:20.697,55.499,52.239,12.143,16.035,24.194,14.835,7.442,7.306,8.783,1.606,12.729,-5.210,16.672,-8.303,19.587,4.824,20.498,-2.341,0.530
2019.07.22 14:06:20.701,53.984,53.004,12.853,16.131,26.669,15.930,4.297,8.412,10.539,4.129,12.079,-3.498,17.635,-4.158,19.078,9.108,22.290,-1.486,1.308
2019.07.22 14:06:20.705,52.649,53.773,12.424,14.012,28.233,15.786,4.242,9.152,12.335,6.263,11.241,-3.059,16.757,-1.468,13.592,8.807,23.083,-0.976,1.080
2019.07.22 14:06:20.709,52.510,54.507,11.105,10.908,28.564,15.209,5.794,9.437,13.485,7.537,9.896,-3.915,14.601,-1.136,6.893,4.256,23.075,-0.765,0.320
2019.07.22 14:06:20.713,53.310,55.177,9.184,8.219,27.130,14.825,6.617,9.065,13.296,7.569,7.645,-5.455,12.046,-2.861,3.089,-1.971,22.623,-0.572,-0.425
2019.07.22 14:06:20.717,53.730,55.799,6.702,6.625,23.563,14.660,5.298,7.934,11.523,6.359,4.479,-6.919,9.636,-5.090,3.439,-7.004,21.898,-0.280,-0.971
2019.07.22 14:06:20.721,52.471,56.392,3.672,5.873,18.322,14.302,2.364,6.248,8.606,4.481,0.989,-7.836,7.302,-5.838,5.496,-9.473,20.841,-0.059,-1.510
2019.07.22 14:06:20.725,49.374,56.881,0.573,5.300,12.993,13.429,-0.263,4.486,5.489,2.920,-1.937,-8.167,4.649,-3.917,5.288,-9.937,19.418,-0.122,-2.246
2019.07.22 14:06:20.729,45.661,57.035,-1.502,4.519,9.704,12.155,-0.876,3.096,3.139,2.528,-3.676,-8.151,1.540,0.260,0.736,-9.898,17.869,-0.407,-3.058
2019.07.22 14:06:20.733,43.067,56.520,-1.420,3.624,9.856,10.874,0.628,2.157,2.070,3.441,-4.262,-8.103,-1.569,4.954,-6.465,-10.423,16.631,-0.545,-3.552
2019.07.22 14:06:20.737,42.524,55.037,0.993,2.789,13.007,9.734,2.657,1.278,2.122,4.907,-4.266,-8.295,-3.846,8.298,-12.025,-11.489,15.939,-0.194,-3.449
2019.07.22 14:06:20.741,43.394,52.481,4.375,1.737,16.828,8.317,3.096,-0.144,2.609,5.740,-4.294,-8.933,-4.703,9.558,-12.345,-12.351,15.467,0.568,-2.914
2019.07.22 14:06:20.745,43.891,49.018,6.338,-0.278,18.363,5.890,0.783,-2.459,2.678,5.130,-4.534,-10.092,-4.308,9.517,-7.296,-12.377,14.387,1.203,-2.465
2019.07.22 14:06:20.749,42.353,45.059,4.932,-3.833,15.861,2.115,-3.818,-5.416,1.711,3.234,-4.719,-11.599,-3.541,9.744,-0.327,-11.502,11.916,1.108,-2.523
2019.07.22 14:06:20.753,38.444,41.153,0.069,-8.548,9.948,-2.400,-9.098,-8.167,-0.413,1.112,-4.515,-12.967,-3.402,11.361,4.118,-10.016,7.968,0.127,-3.013
2019.07.22 14:06:20.757,33.365,37.822,-6.208,-12.908,3.301,-6.240,-13.398,-9.639,-3.285,0.049,-3.957,-13.543,-4.323,14.323,3.794,-8.061,3.396,-1.280,-3.419
2019.07.22 14:06:20.761,28.998,35.417,-10.926,-15.024,-1.002,-8.011,-15.865,-9.064,-6.161,0.769,-3.525,-12.851,-5.926,17.691,0.017,-5.455,-0.433,-2.383,-3.253
2019.07.22 14:06:20.765,26.650,34.010,-12.060,-13.871,-1.340,-7.262,-16.588,-6.379,-8.341,3.086,-3.804,-10.909,-7.411,20.554,-3.725,-2.063,-2.431,-2.755,-2.508
2019.07.22 14:06:20.769,26.338,33.396,-9.757,-10.084,1.614,-4.797,-16.199,-2.301,-9.554,6.170,-5.001,-8.292,-8.245,22.699,-4.645,1.686,-2.413,-2.577,-1.667
2019.07.22 14:06:20.773,27.054,33.193,-6.044,-5.663,5.545,-2.139,-15.418,1.939,-10.150,9.110,-6.760,-5.845,-8.613,24.452,-2.719,4.711,-1.107,-2.419,-1.252
2019.07.22 14:06:20.777,27.657,33.028,-3.317,-2.774,8.092,-0.598,-14.869,5.067,-10.924,11.288,-8.426,-4.270,-9.272,25.902,-0.420,5.811,0.386,-2.704,-1.333
2019.07.22 14:06:20.781,27.626,32.712,-2.780,-2.485,8.227,-0.630,-15.047,6.240,-12.645,12.331,-9.524,-3.876,-10.935,26.347,-0.526,4.402,1.261,-3.341,-1.483
2019.07.22 14:06:20.785,27.144,32.297,-3.948,-4.313,6.545,-1.889,-16.220,5.319,-15.529,11.854,-10.078,-4.632,-13.692,24.580,-3.880,0.845,1.327,-3.858,-1.228
2019.07.22 14:06:20.789,26.598,32.000,-5.412,-6.783,4.476,-3.753,-18.214,2.857,-19.055,9.410,-10.520,-6.381,-16.928,19.888,-8.836,-3.921,0.867,-3.873,-0.574
2019.07.22 14:06:20.793,26.072,32.033,-6.068,-8.469,3.134,-5.775,-20.337,-0.199,-22.260,4.836,-11.306,-8.974,-19.785,12.912,-12.705,-9.077,0.288,-3.467,-0.082
2019.07.22 14:06:20.797,25.304,32.450,-5.787,-8.701,2.686,-7.679,-21.670,-2.930,-24.346,-1.271,-12.582,-12.153,-21.808,5.552,-13.908,-14.344,-0.098,-3.074,-0.384
2019.07.22 14:06:20.801,24.089,33.118,-5.115,-7.558,2.554,-9.078,-21.623,-4.810,-25.165,-7.467,-14.131,-15.369,-23.233,-0.117,-13.103,-19.766,-0.041,-3.022,-1.553
2019.07.22 14:06:20.805,22.687,33.790,-4.464,-5.400,2.110,-9.366,-20.347,-5.836,-25.201,-12.030,-15.582,-17.782,-24.695,-3.114,-12.464,-25.138,0.758,-3.133,-2.934
2019.07.22 14:06:20.809,21.777,34.225,-3.667,-2.508,1.223,-8.089,-18.596,-6.412,-25.080,-13.929,-16.640,-18.624,-26.575,-4.052,-13.786,-29.694,2.567,-2.829,-3.634
2019.07.22 14:06:20.813,21.935,34.255,-2.297,0.818,0.259,-5.512,-17.129,-7.085,-24.988,-13.507,-17.151,-17.686,-28.517,-4.494,-16.965,-32.421,5.331,-1.658,-3.270
2019.07.22 14:06:20.817,23.082,33.770,-0.367,3.915,-0.347,-2.820,-16.134,-8.292,-24.497,-12.322,-17.013,-15.556,-29.514,-5.751,-20.001,-32.781,8.422,0.192,-2.303
2019.07.22 14:06:20.821,24.388,32.692,1.347,5.681,-0.502,-1.569,-15.200,-10.231,-22.950,-12.159,-16.132,-13.328,-28.569,-8.041,-20.484,-31.177,10.736,1.899,-1.656
2019.07.22 14:06:20.825,24.756,30.981,1.781,5.035,-0.517,-2.674,-13.868,-12.832,-20.118,-13.899,-14.542,-11.942,-25.459,-10.601,-17.394,-28.715,11.223,2.572,-1.912
2019.07.22 14:06:20.829,23.544,28.713,0.502,1.689,-0.810,-5.676,-12.266,-15.777,-16.572,-17.008,-12.591,-11.606,-21.059,-12.481,-11.899,-26.412,9.526,1.949,-2.826
2019.07.22 14:06:20.833,20.985,26.147,-1.772,-3.399,-1.549,-8.934,-11.216,-18.532,-13.445,-20.008,-10.969,-11.781,-16.962,-13.301,-6.642,-24.548,6.271,0.641,-3.588
2019.07.22 14:06:20.837,18.033,23.714,-3.592,-8.326,-2.535,-10.660,-11.664,-20.437,-11.737,-21.537,-10.432,-11.714,-14.609,-13.380,-4.106,-22.740,2.756,-0.296,-3.607
2019.07.22 14:06:20.841,15.780,21.872,-3.871,-11.203,-3.374,-10.066,-13.901,-20.910,-11.697,-21.202,-11.363,-11.131,-14.501,-13.317,-5.210,-20.689,0.214,-0.121,-3.124
2019.07.22 14:06:20.845,14.871,20.898,-2.777,-11.145,-3.760,-7.757,-17.254,-19.714,-12.753,-19.656,-13.479,-10.495,-15.992,-13.526,-9.025,-18.906,-0.870,1.087,-3.052
2019.07.22 14:06:20.849,15.249,20.739,-1.663,-8.666,-3.659,-5.142,-20.546,-17.145,-14.010,-17.936,-15.945,-10.632,-17.785,-14.154,-13.616,-18.653,-0.946,2.555,-4.172
2019.07.22 14:06:20.853,16.278,21.010,-2.064,-5.264,-3.310,-3.369,-22.936,-13.948,-14.908,-16.667,-17.845,-12.008,-18.770,-15.314,-17.284,-20.997,-1.007,3.435,-6.359
2019.07.22 14:06:20.857,17.052,21.157,-4.543,-2.543,-3.108,-2.647,-24.424,-10.974,-15.494,-15.757,-18.662,-14.243,-18.645,-17.215,-19.336,-25.678,-1.940,3.391,-8.546
2019.07.22 14:06:20.861,16.732,20.698,-8.283,-1.459,-3.434,-2.409,-25.605,-8.756,-16.147,-14.734,-18.430,-16.269,-17.932,-19.945,-19.994,-30.784,-4.040,2.713,-9.490
2019.07.22 14:06:20.865,14.843,19.439,-11.685,-2.050,-4.489,-2.014,-26.912,-7.299,-17.046,-13.336,-17.474,-17.009,-17.429,-23.103,-19.727,-33.680,-6.946,1.957,-8.711
2019.07.22 14:06:20.869,11.528,17.571,-13.424,-3.637,-6.126,-1.286,-28.063,-6.234,-17.864,-11.795,-16.014,-16.064,-17.531,-25.757,-18.666,-32.664,-9.924,1.471,-6.824
2019.07.22 14:06:20.873,7.688,15.626,-13.128,-5.210,-7.748,-0.422,-28.206,-5.189,-17.961,-10.561,-13.983,-13.880,-17.903,-26.961,-16.574,-28.151,-12.233,1.218,-4.998
2019.07.22 14:06:20.877,4.799,14.307,-11.228,-5.773,-8.425,0.564,-26.638,-4.078,-16.886,-9.757,-11.212,-11.297,-17.731,-26.476,-13.328,-22.463,-13.363,0.983,-4.020
2019.07.22 14:06:20.881,4.326,14.239,-8.314,-4.617,-7.278,2.194,-23.459,-3.069,-14.752,-8.895,-7.793,-8.873,-16.339,-25.029,-9.422,-18.271,-13.101,0.689,-3.752
2019.07.22 14:06:20.885,6.918,15.700,-4.670,-1.580,-4.018,5.218,-19.575,-2.287,-12.158,-7.175,-4.279,-6.504,-13.723,-23.760,-5.982,-16.782,-11.524,0.500,-3.393
2019.07.22 14:06:20.889,11.871,18.427,-0.433,2.745,0.705,9.820,-16.097,-1.575,-9.771,-4.170,-1.500,-3.631,-10.645,-23.252,-4.173,-16.987,-8.990,0.622,-2.276
2019.07.22 14:06:20.893,17.282,21.608,3.888,7.050,5.434,15.040,-13.660,-0.585,-7.944,-0.348,-0.132,0.167,-8.224,-22.984,-4.410,-16.544,-6.117,1.012,-0.467
2019.07.22 14:06:20.897,20.946,24.120,7.149,9.746,8.567,19.036,-12.245,0.816,-6.691,3.031,-0.330,4.679,-7.324,-21.793,-5.990,-13.695,-3.651,1.318,1.318
2019.07.22 14:06:20.901,21.499,24.959,8.026,9.694,9.166,20.125,-11.564,2.188,-5.965,4.615,-1.709,9.045,-8.138,-19.052,-7.489,-8.805,-2.196,1.126,2.348
2019.07.22 14:06:20.905,19.115,23.694,5.938,6.843,7.438,17.864,-11.515,2.600,-5.905,3.782,-3.622,12.216,-10.176,-15.568,-7.694,-4.360,-1.940,0.317,2.475
2019.07.22 14:06:20.909,15.327,20.714,1.709,2.331,4.569,13.369,-12.214,1.209,-6.742,0.988,-5.516,13.549,-12.592,-13.314,-6.421,-3.337,-2.531,-0.794,2.165
2019.07.22 14:06:20.913,12.123,17.112,-2.659,-2.061,2.046,8.600,-13.560,-2.037,-8.409,-2.576,-7.072,13.135,-14.581,-14.054,-4.602,-7.040,-3.234,-1.653,2.003
2019.07.22 14:06:20.917,10.926,14.253,-5.056,-4.795,0.931,5.193,-14.832,-6.126,-10.239,-5.722,-8.126,11.669,-15.615,-17.896,-3.558,-13.926,-3.285,-1.856,2.172
2019.07.22 14:06:20.921,12.088,13.229,-4.453,-5.245,1.535,3.690,-14.873,-9.440,-11.125,-7.854,-8.532,10.021,-15.470,-22.947,-3.984,-20.290,-2.240,-1.390,2.376
2019.07.22 14:06:20.925,15.062,14.487,-1.385,-3.758,3.588,3.682,-12.853,-10.673,-10.118,-9.007,-8.162,8.818,-14.145,-26.434,-5.394,-22.440,-0.125,-0.562,2.239
2019.07.22 14:06:20.929,18.978,17.794,2.595,-1.163,6.651,4.579,-9.028,-9.571,-7.068,-9.414,-7.051,8.268,-11.809,-26.464,-6.445,-18.928,2.686,0.292,1.754
2019.07.22 14:06:20.933,23.119,22.498,6.021,1.845,10.390,6.289,-4.754,-6.969,-2.787,-9.036,-5.516,8.261,-8.796,-23.093,-5.872,-11.396,5.737,1.068,1.335
2019.07.22 14:06:20.937,27.032,27.863,8.365,4.993,14.538,9.206,-1.643,-4.126,1.413,-7.476,-4.060,8.593,-5.578,-17.951,-3.348,-3.473,8.699,1.901,1.427
2019.07.22 14:06:20.941,30.361,33.267,10.066,8.263,18.692,13.582,-0.456,-1.865,4.467,-4.356,-3.086,9.135,-2.665,-12.858,0.361,1.493,11.388,2.961,2.083
2019.07.22 14:06:20.945,32.701,38.168,11.844,11.500,22.216,18.902,-0.658,-0.181,6.023,0.162,-2.661,9.856,-0.459,-8.627,3.963,2.363,13.644,4.233,2.913
2019.07.22 14:06:20.949,33.657,41.955,13.912,14.203,24.395,23.839,-1.014,1.463,6.335,5.170,-2.537,10.731,0.811,-4.986,6.437,0.537,15.193,5.471,3.464
2019.07.22 14:06:20.953,33.057,43.898,15.704,15.682,24.749,26.905,-0.742,3.447,5.753,9.340,-2.443,11.616,1.039,-1.510,7.413,-1.418,15.669,6.347,3.654
2019.07.22 14:06:20.957,31.109,43.336,16.273,15.470,23.261,27.282,-0.219,5.542,4.314,11.591,-2.393,12.205,0.135,1.445,6.980,-1.777,14.814,6.650,3.808
2019.07.22 14:06:20.961,28.354,40.040,15.005,13.660,20.355,25.221,-0.633,7.044,1.823,11.637,-2.721,12.095,-1.981,2.745,5.233,-0.850,12.741,6.380,4.267
2019.07.22 14:06:20.965,25.477,34.529,12.103,10.921,16.707,21.754,-2.820,7.351,-1.677,10.049,-3.771,10.958,-5.230,1.434,2.125,-0.554,10.046,5.701,4.933
2019.07.22 14:06:20.969,23.107,28.078,8.548,8.183,13.035,18.014,-6.311,6.481,-5.519,7.813,-5.492,8.749,-9.154,-2.234,-2.205,-2.743,7.641,4.844,5.250
2019.07.22 14:06:20.973,21.718,22.347,5.608,6.228,10.001,14.694,-9.412,5.074,-8.522,5.718,-7.293,5.830,-12.877,-6.695,-6.981,-7.609,6.345,4.021,4.687
2019.07.22 14:06:20.977,21.580,18.765,4.279,5.424,8.169,11.994,-10.326,3.907,-9.607,4.015,-8.340,2.922,-15.355,-10.070,-10.782,-13.351,6.465,3.394,3.304
2019.07.22 14:06:20.981,22.705,18.008,4.950,5.719,7.909,9.942,-8.439,3.343,-8.453,2.540,-8.086,0.859,-15.845,-11.437,-12.205,-17.336,7.646,3.044,1.863
2019.07.22 14:06:20.985,24.799,19.816,7.409,6.815,9.246,8.708,-4.757,3.168,-5.680,1.147,-6.650,0.247,-14.282,-11.291,-10.790,-17.882,9.106,2.925,1.309
2019.07.22 14:06:20.989,27.322,23.233,11.058,8.362,11.766,8.604,-1.186,2.925,-2.420,0.055,-4.746,1.208,-11.295,-10.810,-7.436,-15.308,10.144,2.865,2.025
2019.07.22 14:06:20.993,29.702,27.083,15.164,10.060,14.744,9.798,0.741,2.404,0.385,-0.190,-3.229,3.361,-7.861,-10.606,-3.897,-11.498,10.564,2.661,3.498
2019.07.22 14:06:20.997,31.592,30.396,19.022,11.655,17.464,12.035,0.681,1.841,2.389,0.874,-2.615,6.041,-4.839,-10.090,-1.642,-8.384,10.720,2.239,4.699
2019.07.22 14:06:21.001,32.923,32.583,22.030,12.891,19.496,14.620,-0.681,1.638,3.701,3.158,-2.925,8.619,-2.722,-8.038,-0.955,-6.538,11.127,1.743,4.870
2019.07.22 14:06:21.005,33.684,33.356,23.698,13.495,20.703,16.682,-2.483,1.866,4.395,5.885,-3.884,10.702,-1.707,-3.868,-0.982,-4.972,11.925,1.448,4.061
2019.07.22 14:06:21.009,33.574,32.566,23.674,13.239,20.957,17.531,-4.396,1.999,4.184,7.930,-5.240,12.133,-1.895,1.525,-0.658,-2.278,12.616,1.498,2.981
2019.07.22 14:06:21.013,31.953,30.165,21.795,12.053,19.886,16.888,-6.611,1.167,2.601,8.454,-6.865,12.839,-3.320,6.140,0.291,1.833,12.339,1.710,2.336
2019.07.22 14:06:21.017,28.267,26.326,18.197,10.144,16.966,14.905,-9.235,-1.230,-0.462,7.401,-8.579,12.710,-5.726,8.208,1.143,5.855,10.521,1.618,2.258
2019.07.22 14:06:21.021,22.767,21.601,13.431,8.008,12.052,12.085,-11.767,-4.998,-4.336,5.555,-9.927,11.635,-8.312,7.410,0.949,7.262,7.436,0.807,2.312
2019.07.22 14:06:21.025,16.893,16.902,8.465,6.305,5.944,9.153,-13.200,-9.116,-7.704,4.097,-10.221,9.663,-9.834,5.007,-0.417,4.261,4.221,-0.706,2.028
2019.07.22 14:06:21.029,12.831,13.225,4.483,5.585,0.430,6.907,-12.713,-12.242,-9.278,3.965,-8.945,7.137,-9.197,2.835,-1.913,-2.747,2.260,-2.359,1.423
2019.07.22 14:06:21.033,12.301,11.203,2.463,6.006,-2.453,5.981,-10.345,-13.408,-8.549,5.398,-6.231,4.653,-6.206,2.021,-2.074,-11.061,2.324,-3.335,1.004
2019.07.22 14:06:21.037,15.336,10.775,2.710,7.215,-1.611,6.562,-7.069,-12.478,-6.095,7.894,-3.004,2.815,-1.923,2.432,-0.258,-17.059,4.071,-3.083,1.256
2019.07.22 14:06:21.041,19.964,11.188,4.639,8.499,2.268,8.223,-4.217,-10.110,-3.223,10.546,-0.578,1.934,1.783,3.128,2.677,-18.202,6.261,-1.668,2.110
2019.07.22 14:06:21.045,23.184,11.386,7.002,9.147,6.883,10.025,-2.701,-7.327,-1.243,12.495,0.089,1.865,3.285,3.265,4.915,-14.410,7.549,0.287,2.904
2019.07.22 14:06:21.049,22.698,10.566,8.506,8.829,9.513,10.941,-2.643,-4.994,-0.846,13.237,-1.048,2.080,2.176,2.594,5.045,-8.040,7.295,2.041,2.914
2019.07.22 14:06:21.053,18.275,8.593,8.476,7.727,8.523,10.355,-3.572,-3.472,-1.958,12.704,-3.131,1.942,-0.537,1.227,3.116,-2.589,5.861,3.181,1.965
2019.07.22 14:06:21.057,11.835,6.026,7.166,6.375,4.214,8.349,-4.908,-2.585,-3.997,11.168,-4.994,1.034,-3.167,-0.877,0.484,-0.937,4.242,3.770,0.588
2019.07.22 14:06:21.061,6.228,3.764,5.514,5.323,-1.481,5.593,-6.280,-1.806,-6.236,9.105,-5.889,-0.611,-4.465,-4.015,-1.433,-4.077,3.367,4.112,-0.447
2019.07.22 14:06:21.065,3.584,2.534,4.539,4.892,-6.184,2.936,-7.502,-0.561,-8.011,7.082,-5.842,-2.457,-4.310,-8.214,-2.382,-10.864,3.592,4.404,-0.757
2019.07.22 14:06:21.069,4.350,2.527,4.771,5.150,-8.316,0.990,-8.412,1.495,-8.745,5.641,-5.428,-3.617,-3.479,-12.597,-3.395,-18.696,4.673,4.586,-0.595
2019.07.22 14:06:21.073,7.485,3.376,6.063,6.056,-7.642,-0.042,-8.858,4.289,-7.978,5.142,-5.197,-3.172,-2.778,-15.418,-5.610,-24.692,6.121,4.476,-0.471
2019.07.22 14:06:21.077,11.456,4.440,7.825,7.559,-4.964,-0.255,-8.885,7.314,-5.549,5.622,-5.215,-0.577,-2.277,-15.004,-8.813,-26.806,7.560,4.032,-0.554
2019.07.22 14:06:21.081,15.144,5.207,9.421,9.518,-1.403,0.151,-8.870,9.801,-1.821,6.760,-5.064,3.993,-1.291,-10.994,-11.040,-24.480,8.813,3.428,-0.431
2019.07.22 14:06:21.085,18.052,5.551,10.437,11.526,2.134,0.979,-9.335,11.037,2.278,8.039,-4.225,9.561,0.916,-4.838,-9.782,-18.672,9.728,2.879,0.516
2019.07.22 14:06:21.089,19.926,5.707,10.698,12.874,5.024,2.006,-10.515,10.672,5.582,9.014,-2.510,14.634,4.332,0.966,-3.963,-11.319,10.021,2.386,2.450
2019.07.22 14:06:21.093,20.378,6.004,10.179,12.825,6.751,2.938,-12.042,8.858,7.231,9.538,-0.208,17.807,8.020,4.414,4.867,-4.506,9.347,1.674,4.777
2019.07.22 14:06:21.097,18.996,6.532,8.994,11.075,6.842,3.477,-13.116,6.133,7.104,9.758,2.136,18.397,10.733,5.167,13.181,0.285,7.570,0.437,6.530
2019.07.22 14:06:21.101,15.846,6.977,7.488,8.062,5.100,3.457,-13.103,3.136,5.817,9.881,4.064,16.740,11.801,4.458,17.621,2.536,4.981,-1.318,7.153
2019.07.22 14:06:21.105,11.815,6.737,6.273,4.821,1.911,2.921,-12.063,0.332,4.280,9.903,5.390,13.939,11.566,3.865,17.098,2.560,2.240,-3.153,6.962
2019.07.22 14:06:21.109,8.321,5.265,6.020,2.400,-1.734,2.014,-10.750,-2.115,3.122,9.505,6.122,11.213,10.981,3.965,13.323,1.078,0.033,-4.453,6.854
2019.07.22 14:06:21.113,6.494,2.438,7.028,1.223,-4.637,0.775,-10.011,-4.278,2.400,8.253,6.271,9.246,10.744,3.975,9.407,-1.173,-1.287,-4.877,7.471
2019.07.22 14:06:21.117,6.452,-1.295,8.873,0.863,-5.978,-0.963,-10.103,-6.322,1.754,5.950,5.764,7.962,10.714,2.603,7.632,-3.585,-1.824,-4.620,8.556
2019.07.22 14:06:21.121,7.247,-5.091,10.467,0.407,-5.672,-3.415,-10.524,-8.373,0.844,2.886,4.562,6.851,10.115,-0.655,8.036,-5.636,-1.973,-4.260,9.110
2019.07.22 14:06:21.125,7.568,-8.148,10.605,-0.850,-4.245,-6.520,-10.530,-10.440,-0.298,-0.219,2.862,5.558,8.364,-4.875,8.776,-6.862,-2.137,-4.307,8.255
2019.07.22 14:06:21.129,6.620,-10.114,8.691,-2.899,-2.394,-9.732,-9.863,-12.353,-1.276,-2.569,1.160,4.275,5.790,-8.267,7.838,-6.999,-2.559,-4.816,6.090
2019.07.22 14:06:21.133,4.529,-11.203,5.150,-5.046,-0.612,-12.182,-9.015,-13.737,-1.633,-3.713,0.062,3.623,3.599,-9.448,4.710,-6.179,-3.333,-5.400,3.773
2019.07.22 14:06:21.137,2.031,-11.933,1.215,-6.419,0.857,-13.173,-8.751,-14.070,-1.197,-3.756,-0.026,4.134,3.063,-8.402,0.785,-4.929,-4.467,-5.594,2.713
2019.07.22 14:06:21.141,-0.168,-12.637,-1.774,-6.507,1.804,-12.641,-9.301,-12.888,-0.189,-3.239,0.886,5.755,4.545,-6.401,-1.675,-3.862,-5.838,-5.262,3.505
2019.07.22 14:06:21.145,-1.746,-13.123,-3.065,-5.329,1.920,-11.218,-10.011,-10.098,0.973,-2.773,2.422,7.769,7.162,-5.013,-1.150,-3.252,-7.059,-4.681,5.486
2019.07.22 14:06:21.149,-2.576,-12.726,-2.732,-3.163,0.968,-9.779,-9.836,-6.161,1.971,-2.666,4.096,9.239,9.347,-5.034,2.145,-2.886,-7.434,-4.242,7.263
2019.07.22 14:06:21.153,-2.308,-10.784,-1.334,-0.149,-0.842,-8.793,-8.296,-1.962,2.758,-2.748,5.565,9.631,9.902,-6.105,6.487,-2.378,-6.195,-4.070,7.772
2019.07.22 14:06:21.157,-0.285,-7.203,0.639,3.824,-2.665,-7.964,-6.048,1.667,3.478,-2.478,6.702,9.167,8.738,-7.196,9.757,-1.705,-2.947,-3.885,7.001
2019.07.22 14:06:21.161,3.950,-2.719,3.073,8.851,-3.321,-6.481,-4.458,4.450,4.260,-1.255,7.473,8.636,6.785,-7.456,10.620,-1.421,1.952,-3.245,5.825
2019.07.22 14:06:21.165,9.935,1.384,6.062,14.602,-1.982,-3.697,-4.468,6.819,5.050,1.219,7.785,8.812,5.218,-6.743,9.071,-2.223,7.422,-1.947,5.161
2019.07.22 14:06:21.169,16.048,3.952,9.471,20.181,1.223,0.252,-5.696,9.504,5.639,4.702,7.458,9.888,4.623,-5.585,6.193,-4.131,12.138,-0.226,5.188
2019.07.22 14:06:21.173,20.149,4.603,12.670,24.453,5.178,4.368,-6.638,12.815,5.827,8.402,6.354,11.317,4.721,-4.753,3.454,-6.033,15.171,1.386,5.284
2019.07.22 14:06:21.177,20.785,3.920,14.740,26.619,8.402,7.342,-5.907,16.187,5.588,11.264,4.539,12.142,4.760,-4.863,1.972,-6.207,16.352,2.436,4.650
2019.07.22 14:06:21.181,18.110,3.060,15.041,26.620,9.934,8.340,-3.522,18.397,5.120,12.447,2.305,11.565,4.164,-6.223,2.039,-3.635,16.140,2.806,3.045
2019.07.22 14:06:21.185,13.815,3.040,13.703,25.088,9.837,7.498,-1.134,18.400,4.750,11.803,0.045,9.376,2.917,-8.818,3.018,0.854,15.152,2.692,0.981
2019.07.22 14:06:21.189,10.089,4.153,11.632,22.873,9.014,5.786,-0.873,16.168,4.797,10.043,-1.931,6.028,1.474,-12.274,3.657,4.681,13.747,2.357,-0.742
2019.07.22 14:06:21.193,8.326,5.856,9.966,20.548,8.494,4.361,-3.653,12.858,5.448,8.453,-3.459,2.365,0.368,-15.818,2.774,5.077,11.969,1.937,-1.687
2019.07.22 14:06:21.197,8.507,7.163,9.375,18.218,8.758,3.885,-8.264,10.099,6.714,8.214,-4.448,-0.757,-0.086,-18.410,0.049,1.106,9.813,1.456,-2.050
2019.07.22 14:06:21.201,9.599,7.254,9.696,15.740,9.579,4.239,-12.020,8.886,8.424,9.733,-4.774,-2.754,0.181,-19.163,-3.557,-5.356,7.513,0.979,-2.333
2019.07.22 14:06:21.205,10.568,5.949,10.178,13.123,10.419,4.800,-12.505,8.928,10.270,12.413,-4.283,-3.409,1.132,-17.843,-6.150,-10.613,5.582,0.713,-2.781
2019.07.22 14:06:21.209,11.184,3.815,10.144,10.781,11.005,5.041,-9.120,8.966,11.888,15.073,-2.959,-2.812,2.690,-15.059,-6.027,-11.532,4.571,0.895,-3.127
2019.07.22 14:06:21.213,12.053,1.916,9.563,9.463,11.589,5.030,-3.307,7.843,12.995,16.758,-1.099,-1.262,4.656,-11.899,-2.888,-7.654,4.801,1.583,-2.875
2019.07.22 14:06:21.217,13.952,1.353,9.106,9.917,12.695,5.483,2.615,5.487,13.513,17.396,0.695,0.817,6.613,-9.227,1.743,-1.450,6.267,2.574,-1.850
2019.07.22 14:06:21.221,17.053,2.800,9.607,12.485,14.570,7.329,7.008,3.012,13.610,17.788,1.785,2.951,8.033,-7.166,5.361,3.468,8.733,3.546,-0.496
2019.07.22 14:06:21.225,20.601,6.177,11.345,16.825,16.779,11.034,9.690,1.848,13.593,18.909,1.874,4.685,8.586,-5.205,6.149,4.852,11.827,4.332,0.354
2019.07.22 14:06:21.229,23.227,10.569,13.644,21.872,18.290,16.112,11.486,2.569,13.691,21.033,1.208,5.662,8.399,-2.867,4.271,3.159,14.991,5.033,0.047
2019.07.22 14:06:21.233,23.599,14.476,15.131,26.072,18.007,21.144,13.131,4.365,13.857,23.348,0.411,5.684,7.982,-0.355,1.776,0.802,17.369,5.858,-1.463
2019.07.22 14:06:21.237,21.022,16.374,14.502,27.870,15.427,24.375,14.564,5.584,13.759,24.411,0.053,4.721,7.803,1.399,1.049,0.019,17.917,6.817,-3.663
2019.07.22 14:06:21.241,15.736,15.397,11.308,26.354,11.007,24.603,15.145,4.950,12.983,23.153,0.247,2.881,7.837,1.373,2.940,1.092,15.864,7.592,-5.900
2019.07.22 14:06:21.245,8.887,11.838,6.250,21.793,6.029,21.887,14.499,2.521,11.343,19.711,0.609,0.366,7.513,-0.728,6.029,2.302,11.327,7.748,-7.771
2019.07.22 14:06:21.249,2.242,7.130,0.814,15.759,2.031,17.637,13.106,-0.315,9.087,15.462,0.615,-2.561,6.198,-4.149,7.681,1.525,5.585,7.151,-9.171
2019.07.22 14:06:21.253,-2.338,3.227,-3.517,10.595,0.120,13.965,12.085,-1.776,6.847,12.220,0.098,-5.577,3.871,-7.547,6.164,-1.906,0.651,6.195,-10.036
2019.07.22 14:06:21.257,-3.606,1.684,-5.946,8.408,0.486,12.630,12.366,-0.803,5.348,11.154,-0.518,-8.276,1.412,-9.840,2.163,-6.596,-1.726,5.593,-10.133
2019.07.22 14:06:21.261,-1.564,2.934,-6.542,10.061,2.378,14.162,13.985,2.425,5.053,12.197,-0.454,-10.175,0.188,-10.769,-1.547,-10.148,-1.002,5.829,-9.161
2019.07.22 14:06:21.265,2.389,6.186,-5.878,14.787,4.540,17.689,16.124,6.869,5.946,14.289,0.845,-10.786,1.144,-10.740,-2.127,-10.959,1.930,6.745,-7.102
2019.07.22 14:06:21.269,6.092,9.973,-4.467,20.672,5.892,21.543,17.829,11.460,7.599,16.208,3.232,-9.777,4.077,-10.180,1.122,-9.274,5.399,7.617,-4.488
2019.07.22 14:06:21.273,7.817,12.951,-2.446,25.711,6.103,24.248,18.753,15.663,9.425,17.302,5.828,-7.197,7.655,-9.037,6.104,-6.761,8.015,7.709,-2.252
2019.07.22 14:06:21.277,7.325,14.449,0.277,28.755,5.726,25.241,19.294,19.418,10.986,17.660,7.529,-3.631,10.245,-6.888,9.386,-5.094,9.343,6.870,-1.224
2019.07.22 14:06:21.281,6.007,14.482,3.593,29.784,5.796,24.914,20.086,22.643,12.157,17.694,7.692,-0.141,10.948,-3.554,8.690,-4.785,9.775,5.651,-1.619
2019.07.22 14:06:21.285,5.879,13.397,6.897,29.449,7.124,24.061,21.344,24.872,13.092,17.622,6.551,2.070,10.117,0.374,4.527,-5.166,9.829,4.847,-2.925
2019.07.22 14:06:21.289,8.110,11.573,9.256,28.390,9.728,23.223,22.686,25.401,14.045,17.307,5.040,2.165,8.967,3.633,-0.304,-5.376,9.604,4.852,-4.274
2019.07.22 14:06:21.293,12.147,9.422,9.978,26.891,12.801,22.437,23.511,23.822,15.174,16.545,4.163,0.100,8.593,4.996,-2.958,-5.384,8.895,5.385,-5.007
2019.07.22 14:06:21.297,16.172,7.604,9.167,25.109,15.248,21.499,23.543,20.459,16.422,15.452,4.312,-3.327,9.129,4.034,-2.812,-6.153,7.829,5.808,-5.023
2019.07.22 14:06:21.301,18.555,7.071,7.796,23.480,16.424,20.417,22.981,16.299,17.519,14.538,5.010,-6.874,9.644,1.331,-2.000,-8.842,7.320,5.764,-4.691
2019.07.22 14:06:21.305,19.153,8.670,7.141,22.785,16.522,19.572,22.144,12.439,18.085,14.335,5.237,-9.496,8.811,-1.993,-3.800,-13.790,8.727,5.520,-4.467
2019.07.22 14:06:21.309,19.352,12.461,7.942,23.640,16.302,19.391,21.023,9.480,17.758,14.900,4.119,-10.838,5.835,-5.032,-10.080,-20.107,12.806,5.696,-4.543
2019.07.22 14:06:21.313,20.734,17.303,9.873,25.797,16.366,19.815,19.240,7.314,16.323,15.625,1.522,-11.270,0.977,-7.519,-19.728,-26.170,18.755,6.612,-4.755
2019.07.22 14:06:21.317,23.455,21.177,11.752,27.916,16.532,20.065,16.530,5.417,13.783,15.569,-1.822,-11.477,-4.622,-9.654,-29.208,-30.545,24.245,7.850,-4.767
2019.07.22 14:06:21.321,25.735,22.236,12.367,28.209,15.868,19.014,13.255,3.360,10.376,14.070,-4.736,-11.911,-9.613,-11.625,-34.815,-32.634,26.666,8.487,-4.312
2019.07.22 14:06:21.325,25.075,19.932,11.354,25.601,13.402,15.970,10.378,1.138,6.533,11.177,-6.276,-12.529,-13.094,-13.295,-34.990,-32.665,24.800,7.867,-3.351
2019.07.22 14:06:21.329,20.348,15.420,9.475,20.582,9.002,11.281,8.742,-0.879,2.774,7.575,-6.246,-12.951,-14.864,-14.322,-31.084,-31.248,19.716,6.264,-2.083
2019.07.22 14:06:21.333,13.109,10.861,8.078,15.034,3.742,6.248,8.203,-2.237,-0.422,4.097,-5.260,-12.864,-15.229,-14.525,-26.163,-28.972,14.173,4.837,-0.867
2019.07.22 14:06:21.337,6.913,8.025,8.123,11.066,-0.615,2.352,7.433,-2.661,-2.754,1.219,-4.325,-12.304,-14.656,-14.071,-22.868,-26.311,10.875,4.829,-0.117
2019.07.22 14:06:21.341,4.964,7.172,9.487,9.663,-2.673,0.301,4.738,-2.144,-4.173,-1.110,-4.248,-11.597,-13.537,-13.311,-21.873,-23.762,10.811,6.624,-0.156
2019.07.22 14:06:21.345,7.792,7.001,11.061,10.142,-2.255,-0.420,-0.597,-0.907,-4.860,-3.231,-5.198,-11.059,-12.180,-12.434,-21.932,-21.883,12.845,9.410,-1.044
2019.07.22 14:06:21.349,12.783,5.717,11.585,10.808,-0.419,-1.167,-7.456,0.639,-5.093,-5.407,-6.685,-10.768,-10.871,-11.345,-21.245,-21.110,14.795,11.736,-2.479
2019.07.22 14:06:21.353,16.024,2.451,10.621,10.300,1.363,-3.191,-13.307,1.935,-5.048,-7.619,-7.914,-10.625,-9.859,-9.905,-18.974,-21.500,15.135,12.546,-3.879
2019.07.22 14:06:21.357,15.160,-2.029,8.930,8.597,2.255,-6.797,-15.696,2.414,-4.667,-9.632,-8.268,-10.583,-9.237,-8.272,-15.800,-22.633,14.037,11.862,-4.686
2019.07.22 14:06:21.361,11.125,-5.823,7.987,6.946,2.532,-11.155,-13.819,1.831,-3.683,-11.187,-7.624,-10.762,-8.847,-6.921,-13.214,-23.773,13.032,10.638,-4.696
2019.07.22 14:06:21.365,7.391,-7.244,8.924,6.794,3.159,-14.843,-9.057,0.611,-1.851,-12.103,-6.339,-11.242,-8.348,-6.210,-12.239,-24.155,13.609,9.930,-4.172
2019.07.22 14:06:21.369,7.282,-6.024,11.636,8.604,4.812,-16.721,-4.100,-0.119,0.744,-12.256,-4.952,-11.700,-7.464,-5.856,-12.604,-23.208,15.906,10.087,-3.595
2019.07.22 14:06:21.373,11.371,-3.489,14.666,11.456,7.140,-16.528,-1.306,0.974,3.497,-11.530,-3.850,-11.316,-6.224,-4.885,-12.962,-20.680,18.472,10.601,-3.224
2019.07.22 14:06:21.377,16.955,-1.591,15.987,13.726,8.854,-14.884,-1.441,4.580,5.428,-9.885,-3.099,-9.202,-5.020,-2.283,-11.926,-16.753,19.281,10.655,-2.854
2019.07.22 14:06:21.381,20.023,-1.516,14.200,14.286,8.614,-12.782,-3.580,10.097,5.643,-7.508,-2.545,-5.160,-4.399,2.073,-9.103,-12.135,17.216,9.864,-1.997
2019.07.22 14:06:21.385,18.242,-2.880,9.438,13.298,6.074,-10.970,-6.062,15.719,3.882,-4.869,-2.059,-0.152,-4.729,7.017,-5.407,-7.978,12.938,8.580,-0.403
2019.07.22 14:06:21.389,12.711,-4.053,3.426,12.025,2.309,-9.633,-7.674,19.321,0.795,-2.534,-1.727,4.037,-5.953,10.676,-2.453,-5.415,8.533,7.549,1.543
2019.07.22 14:06:21.393,7.196,-3.373,-1.356,11.814,-0.702,-8.502,-8.237,19.625,-2.313,-0.826,-1.818,5.864,-7.598,11.730,-1.538,-4.858,6.206,7.267,2.943
2019.07.22 14:06:21.397,5.428,-0.353,-2.940,13.054,-1.225,-7.253,-8.326,16.850,-4.177,0.385,-2.569,5.090,-9.029,10.389,-2.878,-5.551,6.926,7.590,3.017
2019.07.22 14:06:21.401,8.483,3.938,-0.889,14.838,1.195,-5.868,-8.561,12.405,-4.299,1.541,-3.954,2.977,-9.791,8.270,-5.585,-5.910,9.889,7.909,1.756
2019.07.22 14:06:21.405,14.150,7.569,3.477,15.570,5.464,-4.714,-9.088,7.876,-3.233,2.971,-5.614,1.378,-9.817,7.195,-8.273,-4.631,13.083,7.665,0.042
2019.07.22 14:06:21.409,18.627,8.996,7.777,14.052,9.557,-4.289,-9.577,4.082,-2.179,4.542,-7.034,1.345,-9.407,7.828,-9.839,-1.836,14.522,6.773,-0.929
2019.07.22 14:06:21.413,19.222,8.041,9.818,10.307,11.626,-4.798,-9.566,0.881,-2.144,5.708,-7.815,2.331,-8.999,9.219,-9.924,0.745,13.350,5.616,-0.514
2019.07.22 14:06:21.417,16.035,5.956,8.735,5.594,10.931,-5.883,-8.761,-2.230,-3.227,5.995,-7.878,2.693,-8.880,9.650,-8.857,0.952,10.204,4.688,0.912
2019.07.22 14:06:21.421,11.526,4.586,5.377,1.660,8.094,-6.723,-7.103,-5.299,-4.544,5.496,-7.455,1.130,-9.016,8.079,-7.244,-1.996,6.685,4.248,2.295
2019.07.22 14:06:21.425,8.451,5.183,1.725,-0.304,4.604,-6.525,-4.713,-7.635,-4.897,4.927,-6.900,-2.075,-9.101,5.010,-5.575,-6.513,4.339,4.258,2.747
2019.07.22 14:06:21.429,7.837,7.614,-0.358,-0.338,1.920,-5.142,-1.943,-8.323,-3.737,5.088,-6.506,-5.056,-8.816,2.083,-4.067,-9.447,3.759,4.568,2.238
2019.07.22 14:06:21.433,8.460,10.421,-0.279,0.354,0.693,-3.382,0.460,-7.082,-1.734,6.120,-6.432,-5.690,-8.116,0.713,-2.787,-8.307,4.315,5.102,1.532
2019.07.22 14:06:21.437,8.081,11.671,0.936,0.154,0.520,-2.696,1.359,-4.708,-0.506,7.194,-6.776,-3.260,-7.377,0.943,-1.845,-3.263,4.624,5.842,1.461
2019.07.22 14:06:21.441,5.349,10.090,1.374,-1.953,0.350,-4.307,-0.299,-2.658,-1.607,6.991,-7.642,0.880,-7.240,1.446,-1.486,2.735,3.481,6.666,2.146
2019.07.22 14:06:21.445,0.915,5.825,-0.401,-5.689,-0.725,-8.289,-4.643,-2.044,-5.429,4.699,-9.101,4.184,-8.214,0.678,-1.996,5.970,0.679,7.276,2.858
2019.07.22 14:06:21.449,-3.030,0.428,-4.217,-9.525,-2.761,-13.239,-10.229,-2.818,-10.739,0.803,-11.026,4.686,-10.259,-1.786,-3.513,4.635,-2.765,7.367,2.640
2019.07.22 14:06:21.453,-4.306,-3.932,-8.199,-11.456,-4.781,-16.894,-14.251,-3.822,-15.222,-3.010,-12.971,2.312,-12.645,-4.867,-5.908,0.065,-5.144,6.918,1.159
2019.07.22 14:06:21.457,-2.225,-5.597,-9.834,-10.144,-5.295,-17.417,-13.801,-3.673,-16.716,-4.847,-14.246,-1.258,-14.249,-6.860,-8.790,-4.481,-5.076,6.301,-0.928
2019.07.22 14:06:21.461,2.031,-4.282,-7.573,-5.760,-3.252,-14.553,-7.589,-1.820,-14.429,-3.844,-14.250,-3.970,-14.162,-6.842,-11.627,-6.516,-2.387,6.039,-2.425
2019.07.22 14:06:21.465,6.219,-1.200,-1.932,-0.033,1.138,-9.867,2.952,1.049,-9.377,-0.769,-12.843,-4.884,-12.252,-5.419,-13.897,-6.266,1.665,6.344,-2.474
2019.07.22 14:06:21.469,8.340,1.610,4.611,4.580,6.271,-5.818,14.049,3.553,-3.839,2.466,-10.516,-4.581,-9.294,-4.185,-15.180,-6.250,5.016,6.848,-1.166
2019.07.22 14:06:21.473,7.527,2.370,8.917,6.157,9.881,-4.278,21.389,4.656,-0.128,4.014,-8.171,-4.294,-6.557,-4.339,-15.218,-8.843,5.874,6.781,0.612
2019.07.22 14:06:21.477,4.124,0.463,8.859,4.255,10.254,-5.480,22.368,4.396,0.557,3.184,-6.624,-4.603,-5.059,-5.615,-13.931,-13.900,3.653,5.531,1.907
2019.07.22 14:06:21.481,-0.815,-3.352,4.392,-0.010,7.189,-8.108,17.429,3.738,-1.378,0.670,-6.126,-4.881,-4.971,-6.438,-11.443,-18.517,-0.813,3.142,2.393
2019.07.22 14:06:21.485,-6.066,-7.481,-2.585,-4.766,2.107,-10.412,9.687,3.705,-4.326,-2.165,-6.240,-3.945,-5.556,-5.219,-8.063,-19.209,-5.826,0.345,2.473
2019.07.22 14:06:21.489,-10.490,-10.436,-9.358,-8.514,-2.791,-11.506,3.090,4.491,-6.430,-4.325,-6.155,-1.299,-5.666,-1.748,-4.245,-14.736,-9.757,-1.929,2.795
2019.07.22 14:06:21.493,-13.116,-11.563,-13.777,-10.846,-5.751,-11.881,0.280,5.260,-6.532,-5.781,-5.227,2.154,-4.473,2.426,-0.507,-7.227,-11.782,-3.175,3.653
2019.07.22 14:06:21.497,-13.303,-11.166,-15.083,-12.340,-6.303,-12.786,1.417,4.760,-4.622,-7.223,-3.401,4.607,-1.958,4.976,2.644,-0.644,-12.046,-3.584,4.789
2019.07.22 14:06:21.501,-11.088,-10.026,-13.868,-13.816,-5.204,-15.025,4.550,2.287,-1.628,-9.258,-1.223,4.674,1.150,4.414,4.770,2.138,-11.278,-3.764,5.710
2019.07.22 14:06:21.505,-7.439,-8.731,-11.397,-15.558,-3.627,-18.117,7.132,-1.735,1.229,-11.696,0.517,2.445,3.874,1.139,5.592,1.244,-10.231,-4.171,6.163
2019.07.22 14:06:21.509,-4.065,-7.315,-8.837,-17.086,-2.256,-20.497,7.612,-5.962,3.087,-13.497,1.282,-0.592,5.572,-2.844,5.131,-0.811,-9.306,-4.724,6.308
2019.07.22 14:06:21.513,-2.672,-5.429,-6.842,-17.577,-0.957,-20.585,6.155,-8.946,3.763,-13.395,1.084,-2.697,6.222,-5.286,3.841,-1.582,-8.531,-4.914,6.478
2019.07.22 14:06:21.517,-4.072,-2.856,-5.570,-16.561,0.803,-17.922,4.208,-9.940,3.629,-10.760,0.415,-3.145,6.259,-5.134,2.599,-0.824,-7.769,-4.282,6.788
2019.07.22 14:06:21.521,-7.707,0.080,-4.925,-14.318,3.190,-13.509,3.380,-9.180,3.200,-6.091,-0.104,-2.599,6.145,-3.047,2.383,-0.456,-6.939,-2.827,6.987
2019.07.22 14:06:21.525,-11.973,2.570,-4.771,-11.703,5.574,-9.135,4.442,-7.516,2.749,-0.828,-0.108,-2.391,6.008,-0.738,3.706,-2.502,-6.091,-1.010,6.694
2019.07.22 14:06:21.529,-15.129,3.818,-4.989,-9.555,6.819,-6.226,7.026,-5.748,2.173,3.381,0.315,-3.364,5.590,0.277,6.115,-6.915,-5.356,0.631,5.759
2019.07.22 14:06:21.533,-16.183,3.627,-5.430,-8.177,6.084,-5.050,10.015,-4.168,1.144,5.516,0.714,-5.265,4.492,-0.410,8.188,-11.299,-4.841,1.901,4.390
2019.07.22 14:06:21.537,-15.207,2.618,-5.905,-7.253,3.502,-4.775,12.249,-2.572,-0.598,5.658,0.566,-7.104,2.535,-2.084,8.230,-12.831,-4.566,3.038,2.937
2019.07.22 14:06:21.541,-12.950,1.892,-6.238,-6.210,0.198,-4.224,13.039,-0.633,-3.038,4.858,-0.410,-8.072,-0.034,-3.650,5.359,-10.732,-4.439,4.401,1.576
2019.07.22 14:06:21.545,-10.175,2.367,-6.352,-4.705,-2.399,-2.713,12.308,1.694,-5.894,4.524,-2.088,-8.153,-2.603,-4.478,0.290,-7.103,-4.272,6.042,0.226
2019.07.22 14:06:21.549,-7.257,4.217,-6.293,-2.866,-3.453,-0.373,10.451,4.050,-8.780,5.641,-3.969,-7.948,-4.480,-4.730,-4.852,-5.330,-3.826,7.546,-1.189
2019.07.22 14:06:21.553,-4.277,6.811,-6.161,-1.135,-3.160,2.123,8.158,5.881,-11.365,8.243,-5.407,-7.950,-5.219,-5.013,-7.730,-7.340,-2.902,8.265,-2.420
2019.07.22 14:06:21.557,-1.403,9.155,-6.006,0.098,-2.464,4.115,6.282,6.793,-13.411,11.393,-5.901,-7.999,-4.804,-5.733,-7.286,-11.983,-1.457,7.759,-2.886
2019.07.22 14:06:21.561,0.885,10.512,-5.764,0.777,-2.280,5.321,5.678,6.805,-14.704,13.693,-5.311,-7.428,-3.603,-6.669,-4.476,-15.870,0.315,6.094,-2.066
2019.07.22 14:06:21.565,1.968,10.770,-5.286,1.181,-2.857,5.840,6.904,6.351,-15.002,14.069,-3.895,-5.745,-2.132,-7.091,-1.629,-15.950,2.043,3.780,0.016
2019.07.22 14:06:21.569,1.533,10.349,-4.451,1.675,-3.703,5.925,9.842,6.052,-14.119,12.384,-2.144,-3.197,-0.767,-6.290,-0.791,-11.738,3.354,1.439,2.685
2019.07.22 14:06:21.573,-0.119,9.789,-3.281,2.439,-4.067,5.805,13.516,6.411,-12.111,9.535,-0.500,-0.681,0.429,-4.137,-2.241,-5.484,4.083,-0.529,5.051
2019.07.22 14:06:21.577,-2.155,9.366,-1.983,3.336,-3.529,5.680,16.377,7.568,-9.397,6.936,0.865,0.935,1.674,-1.256,-4.307,-0.334,4.360,-2.046,6.654
2019.07.22 14:06:21.581,-3.606,9.042,-0.868,4.028,-2.221,5.802,17.053,9.218,-6.639,5.717,2.070,1.474,3.249,1.285,-4.671,1.891,4.530,-3.212,7.768
2019.07.22 14:06:21.585,-3.766,8.738,-0.186,4.204,-0.550,6.453,15.182,10.712,-4.390,6.106,3.352,1.509,5.242,2.567,-2.213,1.581,4.947,-4.098,9.057
2019.07.22 14:06:21.589,-2.324,8.647,0.043,3.799,1.272,7.768,11.768,11.291,-2.737,7.399,4.801,1.795,7.429,2.313,2.055,0.456,5.810,-4.650,10.873
2019.07.22 14:06:21.593,0.723,9.265,0.070,3.056,3.438,9.565,8.743,10.388,-1.221,8.506,6.233,2.586,9.388,0.999,5.744,-0.026,7.131,-4.744,12.803
2019.07.22 14:06:21.597,5.116,11.053,0.276,2.395,6.301,11.341,7.914,7.874,0.841,8.680,7.295,3.452,10.768,-0.465,6.974,0.456,8.804,-4.292,13.916
2019.07.22 14:06:21.601,10.203,13.943,0.903,2.156,9.871,12.516,9.945,4.144,3.819,7.920,7.721,3.726,11.519,-1.260,5.904,1.437,10.665,-3.308,13.539
2019.07.22 14:06:21.605,14.774,17.104,1.827,2.335,13.518,12.755,14.018,-0.017,7.395,6.800,7.553,3.144,11.890,-1.070,4.627,2.517,12.464,-1.896,11.900
2019.07.22 14:06:21.609,17.211,19.184,2.544,2.489,16.170,12.126,18.394,-3.749,10.636,5.913,7.126,2.098,12.178,-0.166,5.430,3.694,13.794,-0.235,10.073
2019.07.22 14:06:21.613,16.125,18.944,2.417,1.905,16.896,10.970,21.465,-6.474,12.501,5.369,6.827,1.265,12.414,0.844,8.776,4.859,14.126,1.423,9.201
2019.07.22 14:06:21.617,11.181,15.873,1.051,-0.009,15.449,9.599,22.573,-8.099,12.426,4.735,6.805,0.986,12.257,1.383,12.655,5.193,12.995,2.774,9.622
2019.07.22 14:06:21.621,3.532,10.389,-1.471,-3.318,12.345,8.042,22.081,-8.968,10.584,3.419,6.878,0.951,11.210,1.138,13.954,3.419,10.276,3.562,10.605
2019.07.22 14:06:21.625,-4.604,3.537,-4.672,-7.405,8.433,6.046,20.780,-9.582,7.669,1.168,6.707,0.489,9.052,0.084,10.868,-1.032,6.344,3.745,10.923
2019.07.22 14:06:21.629,-11.051,-3.564,-7.994,-11.204,4.328,3.321,19.172,-10.249,4.414,-1.704,6.097,-0.824,6.141,-1.649,4.494,-6.958,1.981,3.596,9.783
2019.07.22 14:06:21.633,-14.761,-10.097,-11.104,-13.722,0.170,-0.136,17.244,-10.869,1.247,-4.497,5.168,-2.765,3.349,-3.852,-1.703,-11.618,-1.928,3.612,7.379
2019.07.22 14:06:21.637,-16.095,-15.516,-13.897,-14.515,-4.098,-3.864,14.844,-10.984,-1.667,-6.537,4.264,-4.615,1.614,-6.177,-4.241,-12.448,-4.700,4.223,4.644
2019.07.22 14:06:21.641,-16.148,-19.278,-16.213,-13.831,-8.195,-7.033,12.249,-10.070,-4.099,-7.473,3.657,-5.697,1.400,-8.038,-2.066,-9.027,-5.984,5.504,2.487
2019.07.22 14:06:21.645,-15.682,-20.710,-17.545,-12.338,-11.225,-8.769,10.324,-7.904,-5.513,-7.303,3.328,-5.796,2.451,-8.664,2.730,-3.659,-5.696,7.094,1.174
2019.07.22 14:06:21.649,-14.578,-19.290,-17.114,-10.666,-11.995,-8.572,10.001,-4.796,-5.221,-6.196,3.005,-5.150,3.989,-7.434,6.439,0.104,-3.905,8.425,0.339
2019.07.22 14:06:21.653,-12.249,-15.211,-14.382,-9.118,-9.796,-6.611,11.448,-1.527,-2.886,-4.363,2.455,-4.079,5.222,-4.323,6.337,-0.057,-0.851,9.089,-0.460
2019.07.22 14:06:21.657,-8.625,-9.741,-9.688,-7.720,-5.071,-3.733,13.615,0.985,1.011,-2.086,1.757,-2.691,5.778,-0.144,2.436,-3.650,2.931,9.068,-1.211
2019.07.22 14:06:21.661,-4.750,-4.907,-4.441,-6.484,0.573,-1.107,14.655,2.126,5.171,0.189,1.315,-0.949,5.789,3.705,-2.826,-7.945,6.568,8.632,-1.436
2019.07.22 14:06:21.665,-2.338,-2.498,-0.568,-5.573,5.132,0.363,13.043,1.891,8.060,1.906,1.566,1.004,5.615,5.937,-6.532,-10.177,9.079,8.036,-0.677
2019.07.22 14:06:21.669,-2.486,-2.948,0.573,-5.176,7.318,0.583,8.633,0.877,8.750,2.676,2.601,2.670,5.496,6.105,-7.293,-9.558,9.850,7.268,0.997
2019.07.22 14:06:21.673,-4.589,-4.894,-0.904,-5.194,7.276,0.417,2.882,-0.057,7.445,2.607,4.031,3.446,5.418,4.876,-5.845,-7.503,9.055,6.115,2.953
2019.07.22 14:06:21.677,-6.420,-5.843,-3.368,-5.089,6.439,1.258,-1.972,-0.276,5.340,2.374,5.230,3.133,5.291,3.608,-3.974,-6.043,7.689,4.464,4.478
2019.07.22 14:06:21.681,-5.512,-3.650,-4.584,-4.133,6.601,4.167,-4.240,0.272,3.912,2.862,5.790,2.224,5.221,3.499,-2.850,-5.905,7.084,2.576,5.351
2019.07.22 14:06:21.685,-0.888,2.104,-3.048,-1.971,8.838,9.085,-3.716,1.025,4.108,4.562,5.827,1.620,5.599,4.865,-2.172,-5.943,8.173,1.028,5.974
2019.07.22 14:06:21.689,6.160,9.742,1.167,0.938,12.950,14.638,-1.607,1.134,5.953,7.140,5.884,1.921,6.872,7.017,-0.707,-4.334,10.970,0.324,6.943
2019.07.22 14:06:21.693,12.859,16.405,6.579,3.402,17.715,18.766,0.410,-0.038,8.728,9.537,6.494,2.877,9.147,8.799,2.373,-0.414,14.583,0.475,8.436
2019.07.22 14:06:21.697,16.741,19.660,11.301,4.132,21.682,19.834,1.278,-2.550,11.508,10.575,7.718,3.501,11.953,9.347,6.566,4.495,17.748,0.931,9.955
2019.07.22 14:06:21.701,17.097,18.769,14.126,2.520,23.891,17.539,1.035,-5.852,13.603,9.685,9.030,2.813,14.380,8.555,10.267,7.966,19.481,0.954,10.666
2019.07.22 14:06:21.705,15.040,14.844,14.971,-0.990,24.105,13.020,0.444,-9.095,14.672,7.219,9.624,0.627,15.532,6.966,11.874,8.241,19.450,0.186,10.029
2019.07.22 14:06:21.709,12.269,9.888,14.477,-5.233,22.520,8.090,0.181,-11.595,14.557,4.162,8.931,-2.272,14.994,5.268,10.819,5.397,17.905,-1.060,8.209
2019.07.22 14:06:21.713,9.622,5.484,13.240,-9.088,19.364,4.132,0.265,-13.147,13.123,1.445,6.974,-4.722,13.008,3.841,7.739,1.007,15.315,-2.030,5.923
2019.07.22 14:06:21.717,6.613,2.019,11.336,-12.121,14.790,1.398,0.136,-14.028,10.325,-0.633,4.330,-6.045,10.280,2.665,3.803,-3.229,12.050,-2.129,3.913
2019.07.22 14:06:21.721,2.270,-1.104,8.465,-14.656,9.129,-0.846,-0.757,-14.710,6.440,-2.445,1.775,-6.465,7.573,1.580,-0.079,-6.606,8.306,-1.418,2.491
2019.07.22 14:06:21.725,-3.516,-4.599,4.512,-17.283,3.231,-3.502,-2.412,-15.482,2.224,-4.555,-0.120,-6.744,5.389,0.602,-3.497,-9.381,4.230,-0.594,1.511
2019.07.22 14:06:21.729,-9.354,-8.487,-0.042,-20.222,-1.553,-6.808,-4.190,-16.234,-1.242,-7.092,-1.184,-7.381,3.903,0.004,-6.174,-11.846,0.070,-0.456,0.708
2019.07.22 14:06:21.733,-13.041,-11.944,-4.222,-23.046,-3.880,-10.084,-5.248,-16.525,-2.993,-9.443,-1.566,-8.091,3.096,0.132,-7.549,-13.583,-3.794,-1.245,0.025
2019.07.22 14:06:21.737,-13.050,-13.848,-7.088,-24.922,-3.157,-12.194,-5.103,-15.888,-2.660,-10.528,-1.546,-8.036,2.906,1.162,-6.907,-13.682,-6.949,-2.398,-0.373
2019.07.22 14:06:21.741,-9.655,-13.553,-8.271,-25.130,-0.000,-12.321,-3.901,-14.159,-0.663,-9.469,-1.386,-6.585,3.260,3.019,-4.024,-11.692,-9.065,-2.913,-0.364
2019.07.22 14:06:21.745,-4.806,-11.322,-8.114,-23.465,3.957,-10.494,-2.240,-11.631,1.983,-6.226,-1.306,-3.949,3.983,5.493,0.251,-8.299,-9.997,-2.071,-0.106
2019.07.22 14:06:21.749,-0.902,-8.184,-7.394,-20.290,6.843,-7.545,-0.768,-8.946,4.136,-1.795,-1.510,-1.126,4.742,8.376,4.172,-4.962,-9.836,0.005,0.026
2019.07.22 14:06:21.753,0.551,-5.395,-6.902,-16.310,7.436,-4.632,0.115,-6.777,4.983,2.155,-2.148,0.810,5.111,11.452,6.055,-2.776,-8.975,2.368,-0.236
2019.07.22 14:06:21.757,-0.563,-3.908,-7.192,-12.309,5.638,-2.703,0.263,-5.486,4.268,4.025,-3.231,1.462,4.778,14.349,5.382,-1.619,-8.080,3.820,-0.794
2019.07.22 14:06:21.761,-3.526,-4.130,-8.541,-8.986,2.293,-2.231,-0.381,-4.949,2.266,3.005,-4.574,1.292,3.730,16.477,3.175,-0.426,-7.907,3.644,-1.254
2019.07.22 14:06:21.765,-7.670,-5.952,-10.991,-6.854,-1.435,-3.213,-1.887,-4.645,-0.400,-0.570,-5.866,1.121,2.286,17.220,1.288,1.609,-8.932,1.989,-1.277
2019.07.22 14:06:21.769,-12.727,-8.891,-14.283,-6.098,-4.663,-5.277,-4.244,-3.960,-2.973,-5.380,-6.848,1.415,0.952,16.352,1.136,4.046,-10.983,-0.304,-0.888
2019.07.22 14:06:21.773,-18.384,-12.200,-17.758,-6.409,-7.008,-7.747,-7.190,-2.564,-4.754,-9.681,-7.452,1.966,0.175,14.358,2.786,5.399,-13.167,-2.260,-0.431
2019.07.22 14:06:21.777,-23.606,-14.973,-20.434,-6.985,-8.388,-9.715,-10.173,-0.648,-5.270,-12.024,-7.788,2.214,0.164,12.339,5.058,4.457,-14.266,-3.326,-0.218
2019.07.22 14:06:21.781,-26.589,-16.351,-21.375,-6.861,-8.706,-10.259,-12.550,1.113,-4.409,-11.770,-7.977,1.846,0.850,11.481,6.480,1.557,-13.443,-3.576,-0.182
2019.07.22 14:06:21.785,-25.649,-15.836,-20.191,-5.481,-7.737,-8.837,-13.892,1.861,-2.452,-9.238,-7.966,1.125,1.988,12.376,6.325,-1.387,-10.797,-3.513,0.106
2019.07.22 14:06:21.789,-20.472,-13.555,-17.309,-3.148,-5.332,-5.646,-14.156,0.987,0.041,-5.415,-7.509,0.668,3.298,14.676,4.968,-2.261,-7.367,-3.673,1.061
2019.07.22 14:06:21.793,-12.705,-10.272,-13.755,-0.969,-1.766,-1.664,-13.570,-1.538,2.468,-1.461,-6.333,0.896,4.571,17.318,3.417,-0.394,-4.530,-4.317,2.676
2019.07.22 14:06:21.797,-5.295,-7.072,-10.603,-0.238,2.090,1.764,-12.382,-5.102,4.403,1.751,-4.376,1.689,5.704,19.153,2.503,2.892,-3.196,-5.367,4.474
2019.07.22 14:06:21.801,-0.943,-4.885,-8.474,-1.626,4.969,3.581,-10.698,-8.700,5.674,3.824,-1.903,2.525,6.666,19.540,2.398,5.332,-3.371,-6.547,5.874
2019.07.22 14:06:21.805,-0.713,-4.112,-7.469,-4.750,5.718,3.510,-8.594,-11.365,6.263,4.734,0.598,2.936,7.446,18.540,2.723,5.453,-4.370,-7.572,6.645
2019.07.22 14:06:21.809,-3.741,-4.572,-7.500,-8.426,3.853,2.076,-6.359,-12.544,6.176,4.595,2.645,2.852,8.002,16.663,3.011,3.557,-5.441,-8.250,7.026
2019.07.22 14:06:21.813,-8.101,-5.711,-8.601,-11.407,-0.154,0.192,-4.590,-12.245,5.409,3.524,3.967,2.514,8.247,14.462,3.033,1.187,-6.276,-8.467,7.399
2019.07.22 14:06:21.817,-12.067,-6.916,-10.868,-13.082,-5.010,-1.370,-3.911,-10.899,4.089,1.683,4.527,2.112,8.087,12.313,2.765,-0.343,-7.010,-8.139,7.820
2019.07.22 14:06:21.821,-14.849,-7.732,-14.021,-13.649,-9.095,-2.271,-4.467,-9.063,2.623,-0.570,4.431,1.538,7.508,10.467,2.157,-1.007,-7.792,-7.204,7.872
2019.07.22 14:06:21.825,-16.429,-7.930,-17.078,-13.737,-11.090,-2.540,-5.607,-7.153,1.678,-2.629,3.814,0.538,6.663,9.202,1.056,-1.828,-8.404,-5.683,7.027
2019.07.22 14:06:21.829,-16.946,-7.519,-18.595,-13.851,-10.474,-2.334,-6.099,-5.349,1.885,-3.813,2.837,-0.896,5.879,8.809,-0.587,-3.671,-8.322,-3.759,5.204
2019.07.22 14:06:21.833,-16.315,-6.740,-17.520,-14.101,-7.689,-1.788,-4.870,-3.668,3.430,-3.707,1.727,-2.324,5.535,9.366,-2.455,-6.282,-7.219,-1.776,3.020
2019.07.22 14:06:21.837,-14.449,-6.021,-14.040,-14.332,-3.914,-1.045,-1.785,-2.106,5.835,-2.421,0.771,-3.114,5.847,10.496,-3.886,-8.485,-5.401,-0.137,1.428
2019.07.22 14:06:21.841,-11.725,-5.826,-9.714,-14.428,-0.533,-0.355,2.143,-0.705,8.130,-0.579,0.194,-3.004,6.676,11.407,-4.296,-9.323,-3.730,0.881,1.005
2019.07.22 14:06:21.845,-9.097,-6.405,-6.596,-14.431,1.460,-0.043,5.339,0.480,9.364,1.003,-0.015,-2.452,7.525,11.295,-3.683,-9.017,-2.986,1.280,1.467
2019.07.22 14:06:21.849,-7.586,-7.599,-5.903,-14.380,1.861,-0.336,6.704,1.478,9.128,1.738,-0.162,-2.383,7.749,9.862,-2.758,-8.794,-3.183,1.352,1.868
2019.07.22 14:06:21.853,-7.534,-8.904,-7.191,-14.102,1.230,-1.187,6.358,2.442,7.747,1.520,-0.669,-3.461,6.891,7.573,-2.490,-9.697,-3.455,1.524,1.334
2019.07.22 14:06:21.857,-8.307,-9.809,-8.719,-13.243,0.484,-2.305,5.511,3.585,6.022,0.678,-1.767,-5.471,4.955,5.431,-3.354,-11.480,-2.719,2.105,-0.216
2019.07.22 14:06:21.861,-8.811,-10.193,-8.749,-11.598,0.329,-3.375,5.507,5.045,4.734,-0.294,-3.254,-7.337,2.438,4.415,-4.874,-12.672,-0.610,3.082,-1.969
2019.07.22 14:06:21.865,-8.432,-10.438,-6.831,-9.426,0.898,-4.282,6.734,6.786,4.281,-0.996,-4.544,-7.838,0.121,4.962,-5.850,-11.792,2.068,4.096,-2.816
2019.07.22 14:06:21.869,-7.577,-11.092,-4.062,-7.388,1.833,-5.077,8.221,8.603,4.669,-1.193,-4.985,-6.458,-1.245,6.836,-5.148,-8.673,3.830,4.644,-2.150
2019.07.22 14:06:21.873,-7.256,-12.287,-2.139,-6.048,2.736,-5.698,8.286,10.239,5.773,-0.730,-4.244,-3.733,-1.187,9.404,-2.477,-4.680,3.632,4.372,-0.256
2019.07.22 14:06:21.877,-7.982,-13.383,-1.949,-5.307,3.656,-5.703,5.794,11.501,7.587,0.572,-2.474,-0.811,0.397,12.063,1.432,-1.594,1.768,3.305,2.003
2019.07.22 14:06:21.881,-8.907,-13.192,-2.818,-4.325,5.211,-4.345,1.123,12.315,10.204,2.873,-0.176,1.371,3.277,14.470,5.341,-0.148,-0.188,1.849,3.878
2019.07.22 14:06:21.885,-8.045,-10.735,-3.007,-2.083,8.198,-1.066,-3.895,12.673,13.553,6.120,2.136,2.654,6.948,16.485,8.308,0.513,-0.407,0.573,5.227
2019.07.22 14:06:21.889,-3.591,-6.002,-1.059,1.749,12.930,3.933,-7.071,12.554,17.173,9.892,4.194,3.544,10.692,17.978,10.155,1.955,1.940,-0.100,6.431
2019.07.22 14:06:21.893,4.578,-0.142,3.047,6.359,18.776,9.508,-7.241,11.908,20.282,13.436,5.982,4.613,13.682,18.753,11.294,4.971,6.115,-0.098,7.870
2019.07.22 14:06:21.897,14.374,5.141,7.819,10.170,24.283,14.042,-4.967,10.719,22.185,15.941,7.551,5.961,15.220,18.693,12.154,8.792,10.329,0.316,9.470
2019.07.22 14:06:21.901,22.464,8.596,11.260,11.833,27.881,16.326,-2.080,9.095,22.726,16.916,8.842,7.165,15.059,17.958,12.735,11.664,12.916,0.747,10.701
2019.07.22 14:06:21.905,26.134,10.141,12.196,11.123,28.734,16.263,-0.413,7.278,22.435,16.405,9.688,7.681,13.645,16.997,12.709,12.250,13.303,0.908,11.007
2019.07.22 14:06:21.909,24.816,10.760,10.926,9.029,27.194,14.896,-0.614,5.544,22.192,14.938,9.991,7.261,12.036,16.279,11.946,10.603,12.121,0.758,10.269
2019.07.22 14:06:21.913,20.269,11.674,8.838,6.988,24.550,13.722,-1.839,4.038,22.625,13.222,9.891,6.029,11.435,15.925,10.989,7.935,10.503,0.464,8.891
2019.07.22 14:06:21.917,15.366,13.406,7.381,5.858,22.237,13.770,-2.490,2.701,23.660,11.798,9.735,4.209,12.525,15.563,10.949,5.503,9.209,0.257,7.484
2019.07.22 14:06:21.921,12.382,15.421,7.199,5.430,21.031,15.077,-1.393,1.372,24.550,10.839,9.849,1.890,14.985,14.576,12.768,3.724,8.240,0.281,6.428
2019.07.22 14:06:21.925,11.919,16.606,7.984,4.828,20.731,16.854,1.424,0.003,24.387,10.192,10.270,-0.896,17.553,12.616,16.344,2.292,7.131,0.539,5.707
2019.07.22 14:06:21.929,13.034,16.178,8.970,3.424,20.498,18.155,4.848,-1.156,22.741,9.583,10.677,-3.840,18.653,9.991,20.191,1.049,5.565,0.925,5.084
2019.07.22 14:06:21.933,14.252,14.346,9.543,1.498,19.547,18.515,7.517,-1.588,19.982,8.843,10.576,-6.161,17.279,7.610,22.068,0.602,3.741,1.318,4.416
2019.07.22 14:06:21.937,14.632,12.216,9.498,0.092,17.713,18.117,8.708,-0.780,17.084,8.005,9.627,-6.888,13.595,6.458,20.294,1.918,2.223,1.663,3.786
2019.07.22 14:06:21.941,14.167,11.017,8.867,0.212,15.506,17.466,8.645,1.431,15.036,7.240,7.851,-5.503,8.880,6.943,14.947,5.193,1.458,2.001,3.357
2019.07.22 14:06:21.945,13.426,11.237,7.637,2.009,13.675,16.883,8.078,4.677,14.265,6.683,5.596,-2.437,4.820,8.581,8.089,9.085,1.398,2.444,3.154
2019.07.22 14:06:21.949,12.870,12.257,5.665,4.605,12.622,16.238,7.527,8.195,14.394,6.270,3.284,1.037,2.569,10.223,2.724,11.231,1.524,3.106,3.001
2019.07.22 14:06:21.953,12.418,12.753,2.860,6.667,12.066,15.090,6.797,11.225,14.484,5.717,1.158,3.546,2.137,10.701,1.021,9.810,1.224,4.008,2.702
2019.07.22 14:06:21.957,11.508,11.547,-0.601,7.264,11.190,13.075,5.108,13.404,13.559,4.667,-0.796,4.448,2.471,9.472,2.927,4.942,0.191,5.012,2.274
2019.07.22 14:06:21.961,9.541,8.370,-4.253,6.368,9.146,10.249,1.706,14.900,11.137,2.955,-2.719,4.151,2.171,6.860,6.124,-1.266,-1.421,5.829,1.968
2019.07.22 14:06:21.965,6.344,4.045,-7.533,4.690,5.608,7.157,-3.501,16.206,7.479,0.820,-4.664,3.693,0.392,3.819,7.492,-6.125,-3.148,6.114,2.037
2019.07.22 14:06:21.969,2.381,0.056,-9.977,3.093,1.061,4.613,-9.724,17.726,3.489,-1.094,-6.465,3.962,-2.613,1.402,5.202,-8.083,-4.480,5.641,2.466
2019.07.22 14:06:21.973,-1.360,-2.206,-11.261,2.078,-3.336,3.336,-15.613,19.470,0.329,-2.015,-7.779,5.183,-5.623,0.307,0.056,-7.418,-5.043,4.440,2.942
2019.07.22 14:06:21.977,-3.714,-2.073,-11.097,1.703,-6.203,3.640,-19.852,21.022,-1.056,-1.472,-8.240,7.015,-7.160,0.724,-4.901,-5.463,-4.636,2.816,3.139
2019.07.22 14:06:21.981,-3.787,0.200,-9.198,1.854,-6.507,5.290,-21.664,21.796,-0.315,0.394,-7.631,9.046,-6.321,2.467,-6.329,-3.205,-3.206,1.229,3.070
2019.07.22 14:06:21.985,-1.334,3.686,-5.461,2.529,-3.992,7.591,-20.953,21.349,2.199,2.838,-5.967,11.147,-3.258,5.194,-2.837,-0.579,-0.848,0.077,3.168
2019.07.22 14:06:21.989,3.065,7.280,-0.266,3.827,0.691,9.667,-18.120,19.560,5.617,4.903,-3.479,13.351,0.985,8.526,4.047,2.977,2.139,-0.464,3.965
2019.07.22 14:06:21.993,8.172,10.153,5.386,5.691,6.205,10.842,-13.768,16.569,8.946,5.927,-0.548,15.426,5.098,12.013,10.893,7.350,5.247,-0.481,5.617
2019.07.22 14:06:21.997,12.575,11.949,10.143,7.682,11.004,10.935,-8.500,12.619,11.477,5.855,2.388,16.651,8.193,15.069,14.678,11.199,7.849,-0.227,7.655
2019.07.22 14:06:22.001,15.288,12.705,12.895,9.054,13.911,10.307,-2.898,7.970,12.995,5.145,4.922,16.144,10.114,17.033,14.743,12.663,9.378,0.022,9.222
2019.07.22 14:06:22.005,16.128,12.592,13.322,9.126,14.535,9.583,2.419,2.959,13.703,4.342,6.765,13.550,11.225,17.395,12.968,10.781,9.508,0.072,9.619
2019.07.22 14:06:22.009,15.630,11.685,12.029,7.692,13.352,9.197,6.800,-1.898,13.922,3.649,7.809,9.498,11.912,16.072,12.054,6.343,8.256,-0.151,8.739
2019.07.22 14:06:22.013,14.542,9.926,10.132,5.149,11.375,9.058,9.677,-5.935,13.813,2.810,8.128,5.345,12.183,13.530,13.256,1.380,5.987,-0.606,7.058
2019.07.22 14:06:22.017,13.260,7.267,8.575,2.257,9.580,8.581,10.769,-8.584,13.272,1.359,7.893,2.329,11.677,10.616,15.338,-2.296,3.300,-1.156,5.215
2019.07.22 14:06:22.021,11.600,3.864,7.610,-0.305,8.352,7.090,10.217,-9.715,12.065,-0.986,7.255,0.747,10.026,8.142,15.591,-4.259,0.841,-1.603,3.557
2019.07.22 14:06:22.025,9.052,0.103,6.734,-2.284,7.275,4.297,8.545,-9.813,10.028,-4.105,6.257,-0.156,7.260,6.467,12.121,-5.398,-0.956,-1.768,2.007
2019.07.22 14:06:22.029,5.300,-3.596,5.072,-3.916,5.402,0.494,6.449,-9.804,7.175,-7.584,4.830,-1.500,3.892,5.324,5.586,-6.797,-2.102,-1.624,0.340
2019.07.22 14:06:22.033,0.553,-7.067,1.936,-5.691,1.856,-3.681,4.498,-10.560,3.643,-11.035,2.891,-3.823,0.617,4.034,-1.047,-8.696,-3.100,-1.370,-1.438
2019.07.22 14:06:22.037,-4.536,-10.520,-2.758,-8.007,-3.540,-7.699,2.921,-12.382,-0.426,-14.309,0.475,-6.632,-2.144,1.982,-4.600,-10.500,-4.694,-1.368,-2.955
2019.07.22 14:06:22.041,-9.298,-14.312,-8.394,-10.902,-10.008,-11.440,1.594,-14.807,-4.890,-17.453,-2.177,-8.808,-4.452,-0.942,-4.013,-11.726,-7.392,-1.913,-3.710
2019.07.22 14:06:22.045,-13.418,-18.507,-13.876,-13.993,-16.077,-15.082,0.218,-16.874,-9.469,-20.469,-4.632,-9.495,-6.649,-4.232,-1.091,-12.833,-11.036,-2.973,-3.461
2019.07.22 14:06:22.049,-16.960,-22.553,-18.059,-16.649,-20.274,-18.709,-1.423,-17.709,-13.634,-23.156,-6.389,-8.735,-8.916,-7.060,0.916,-14.958,-14.780,-4.118,-2.423
2019.07.22 14:06:22.053,-20.067,-25.441,-20.224,-18.298,-21.861,-22.020,-3.321,-17.032,-16.707,-25.197,-7.075,-7.370,-11.018,-8.795,-0.265,-18.682,-17.569,-4.754,-1.112
2019.07.22 14:06:22.057,-22.662,-26.301,-20.409,-18.745,-21.209,-24.421,-5.317,-15.289,-18.243,-26.429,-6.638,-6.332,-12.490,-9.374,-4.409,-22.999,-18.837,-4.537,-0.000
2019.07.22 14:06:22.061,-24.436,-25.050,-19.403,-18.282,-19.591,-25.463,-7.306,-13.313,-18.433,-27.006,-5.452,-5.950,-13.149,-9.271,-9.308,-25.621,-18.905,-3.675,0.727
2019.07.22 14:06:22.065,-25.116,-22.539,-18.340,-17.502,-18.466,-25.186,-9.388,-11.770,-18.157,-27.240,-4.236,-5.825,-13.452,-9.070,-12.740,-24.605,-18.706,-2.840,1.113
2019.07.22 14:06:22.069,-24.707,-19.992,-18.028,-16.887,-18.657,-24.054,-11.780,-10.759,-18.492,-27.212,-3.767,-5.297,-14.287,-8.940,-14.165,-19.979,-18.976,-2.712,1.210
2019.07.22 14:06:22.073,-23.395,-18.083,-18.415,-16.403,-19.864,-22.455,-14.504,-9.826,-19.921,-26.488,-4.469,-4.024,-16.234,-8.416,-14.703,-13.898,-19.515,-3.474,0.950
2019.07.22 14:06:22.077,-21.170,-16.361,-18.570,-15.436,-20.812,-20.234,-17.089,-8.359,-21.799,-24.265,-6.095,-2.167,-18.846,-6.666,-15.565,-9.011,-19.148,-4.642,0.281
2019.07.22 14:06:22.081,-17.567,-13.537,-17.297,-13.181,-19.973,-16.726,-18.595,-6.097,-22.591,-19.947,-7.737,-0.082,-20.608,-3.099,-16.437,-6.332,-16.509,-5.421,-0.578
2019.07.22 14:06:22.085,-11.919,-8.517,-14.031,-9.263,-16.469,-11.369,-18.049,-3.413,-20.835,-13.730,-8.239,2.109,-19.793,2.084,-15.450,-4.437,-11.134,-5.319,-1.048
2019.07.22 14:06:22.089,-4.106,-1.424,-9.369,-4.152,-10.654,-4.443,-15.089,-1.175,-16.251,-6.754,-6.847,4.606,-15.728,7.791,-10.891,-0.774,-4.017,-4.555,-0.445
2019.07.22 14:06:22.093,4.748,6.184,-4.803,0.983,-4.030,2.715,-10.344,-0.279,-10.166,-0.611,-3.713,7.561,-9.528,12.472,-3.220,5.905,2.837,-3.912,1.538
2019.07.22 14:06:22.097,12.302,12.169,-1.781,4.940,1.462,8.309,-5.211,-1.127,-4.875,3.475,0.106,10.625,-3.674,14.829,4.477,14.004,7.583,-4.127,4.512
2019.07.22 14:06:22.101,15.993,15.138,-0.722,7.200,4.371,11.142,-1.106,-3.360,-2.286,5.232,3.196,12.887,-0.561,14.399,8.293,19.830,9.605,-5.277,7.509
2019.07.22 14:06:22.105,14.481,15.277,-0.764,8.133,4.389,11.354,1.335,-6.021,-2.761,5.304,4.567,13.379,-0.985,11.671,6.296,20.125,9.702,-6.659,9.509
2019.07.22 14:06:22.109,8.592,14.055,-0.436,8.549,2.357,10.270,2.541,-8.042,-4.974,4.668,4.167,11.767,-3.616,7.788,0.123,14.472,9.303,-7.281,9.995
2019.07.22 14:06:22.113,1.034,13.048,1.197,8.938,-0.292,9.453,3.563,-8.787,-6.895,3.995,2.785,8.689,-5.894,4.032,-6.000,5.714,9.382,-6.592,9.159
2019.07.22 14:06:22.117,-5.018,12.805,3.797,9.066,-2.314,9.686,5.244,-8.332,-7.171,3.416,1.444,5.417,-5.719,1.433,-8.183,-1.886,9.885,-4.887,7.633
2019.07.22 14:06:22.121,-7.582,12.651,5.991,8.291,-3.174,10.628,7.638,-7.315,-5.935,2.797,0.735,3.071,-2.787,0.583,-5.531,-5.298,10.080,-3.076,5.990
2019.07.22 14:06:22.125,-6.710,11.534,6.403,6.373,-3.079,11.367,10.123,-6.462,-4.476,2.179,0.555,1.982,1.357,1.620,-0.544,-4.270,9.424,-2.001,4.419
2019.07.22 14:06:22.129,-4.048,9.197,4.715,4.048,-2.606,11.339,12.089,-6.083,-4.100,1.941,0.391,1.634,4.490,4.240,2.969,-0.869,8.191,-1.822,2.771
2019.07.22 14:06:22.133,-1.523,6.650,1.934,2.805,-2.251,10.833,13.557,-5.857,-5.094,2.519,-0.157,1.190,5.206,7.698,2.732,2.271,7.333,-1.954,0.883
2019.07.22 14:06:22.137,-0.155,5.502,-0.301,3.896,-2.199,10.679,15.178,-5.051,-6.575,3.949,-1.077,0.131,3.652,10.905,-0.596,3.511,7.710,-1.555,-1.151
2019.07.22 14:06:22.141,0.231,6.673,-0.843,7.317,-2.395,11.412,17.530,-3.027,-7.317,5.676,-2.104,-1.431,1.063,12.715,-4.389,2.598,9.354,-0.176,-2.978
2019.07.22 14:06:22.145,0.358,9.509,0.241,11.586,-2.776,12.665,20.316,0.297,-6.837,6.833,-3.154,-2.931,-1.398,12.363,-6.377,0.068,11.350,1.913,-4.234
2019.07.22 14:06:22.149,0.570,12.064,1.821,14.591,-3.416,13.335,22.194,4.353,-5.873,6.800,-4.584,-3.772,-3.523,9.825,-6.319,-3.408,12.401,3.942,-4.778
2019.07.22 14:06:22.153,0.406,12.374,2.520,14.939,-4.485,12.403,21.537,8.242,-5.864,5.590,-6.986,-3.621,-5.999,5.845,-5.742,-7.128,11.593,5.158,-4.735
2019.07.22 14:06:22.157,-0.994,9.756,1.548,12.824,-6.078,9.736,17.640,11.230,-7.849,3.733,-10.628,-2.444,-9.561,1.561,-6.236,-10.150,8.810,5.243,-4.313
2019.07.22 14:06:22.161,-4.061,5.177,-0.995,9.769,-8.088,6.222,11.459,13.081,-11.648,1.796,-15.026,-0.397,-14.142,-2.067,-7.950,-11.410,4.611,4.357,-3.623
2019.07.22 14:06:22.165,-8.213,0.444,-4.394,7.478,-10.213,3.124,5.245,13.993,-15.937,-0.054,-19.042,2.212,-18.731,-4.666,-9.638,-10.430,-0.160,2.899,-2.653
2019.07.22 14:06:22.169,-12.009,-3.083,-7.805,6.683,-12.078,1.187,1.250,14.236,-19.118,-2.038,-21.508,4.862,-22.051,-6.446,-10.096,-8.008,-4.642,1.232,-1.437
2019.07.22 14:06:22.173,-13.931,-5.220,-10.528,6.868,-13.348,0.233,0.419,13.819,-20.305,-4.357,-21.921,6.814,-23.424,-7.810,-9.534,-6.038,-7.968,-0.374,-0.201
2019.07.22 14:06:22.177,-13.231,-6.626,-11.996,6.994,-13.747,-0.474,1.984,12.467,-19.695,-6.744,-20.670,7.333,-23.114,-8.921,-9.536,-6.268,-9.252,-1.656,0.665
2019.07.22 14:06:22.181,-10.301,-7.770,-11.706,6.568,-13.032,-1.415,4.251,9.940,-18.133,-8.434,-18.622,6.095,-21.888,-9.550,-11.560,-8.862,-7.828,-2.310,0.839
2019.07.22 14:06:22.185,-6.353,-8.151,-9.355,6.147,-11.033,-2.262,5.933,6.429,-16.334,-8.623,-16.418,3.473,-20.237,-9.318,-15.347,-12.047,-3.715,-2.127,0.319
2019.07.22 14:06:22.189,-2.694,-6.490,-5.147,6.863,-7.786,-2.032,7.038,2.658,-14.402,-7.071,-14.046,0.440,-17.968,-8.113,-18.764,-13.350,2.092,-1.206,-0.528
2019.07.22 14:06:22.193,-0.062,-1.771,0.028,9.389,-3.679,0.155,8.685,-0.437,-12.004,-4.353,-11.045,-1.930,-14.533,-6.325,-19.342,-11.547,7.888,-0.018,-1.166
2019.07.22 14:06:22.197,1.609,5.682,4.833,13.211,0.549,4.315,12.063,-2.246,-8.943,-1.535,-7.125,-3.013,-9.792,-4.683,-16.274,-7.701,12.086,0.818,-1.215
2019.07.22 14:06:22.201,2.943,13.994,8.066,16.806,4.054,9.409,17.402,-2.855,-5.583,0.479,-2.667,-2.854,-4.514,-3.812,-11.157,-4.337,14.054,0.930,-0.632
2019.07.22 14:06:22.205,4.587,20.607,9.247,18.587,6.247,13.852,23.694,-2.951,-2.731,1.426,1.352,-1.923,-0.135,-3.864,-6.774,-3.353,14.354,0.430,0.329
2019.07.22 14:06:22.209,6.724,23.644,8.756,17.890,7.047,16.321,29.325,-3.319,-1.085,1.642,3.954,-0.666,2.101,-4.517,-4.935,-4.447,14.153,-0.199,1.339
2019.07.22 14:06:22.213,8.869,22.810,7.491,15.266,6.823,16.336,33.028,-4.324,-0.734,1.578,4.794,0.751,1.924,-5.373,-5.184,-5.462,14.256,-0.496,2.175
2019.07.22 14:06:22.217,10.078,19.286,6.293,11.948,6.062,14.278,34.477,-5.738,-1.129,1.324,4.311,2.286,0.126,-6.416,-5.464,-4.445,14.541,-0.367,2.730
2019.07.22 14:06:22.221,9.484,14.786,5.596,8.968,5.015,10.980,34.156,-7.018,-1.549,0.529,3.296,3.664,-2.098,-8.150,-4.156,-1.651,14.228,-0.082,2.906
2019.07.22 14:06:22.225,6.887,10.530,5.433,6.629,3.586,7.232,32.798,-7.775,-1.662,-1.217,2.257,4.214,-4.025,-11.254,-1.705,0.312,12.734,0.063,2.532
2019.07.22 14:06:22.229,3.045,6.792,5.659,4.635,1.538,3.513,30.878,-8.042,-1.732,-3.917,1.118,3.159,-5.771,-15.984,-0.405,-1.521,10.354,0.113,1.428
2019.07.22 14:06:22.233,-0.624,3.169,6.059,2.651,-1.188,-0.012,28.500,-8.129,-2.353,-7.023,-0.520,0.179,-7.931,-21.751,-2.485,-7.909,8.144,0.495,-0.404
2019.07.22 14:06:22.237,-2.850,-0.806,6.235,0.730,-4.339,-3.365,25.573,-8.227,-3.969,-9.766,-2.833,-4.198,-10.828,-27.252,-8.109,-16.426,7.076,1.664,-2.655
2019.07.22 14:06:22.241,-3.401,-5.243,5.482,-0.722,-7.548,-6.649,21.993,-8.112,-6.609,-11.690,-5.461,-8.734,-14.080,-31.109,-14.968,-22.980,7.169,3.641,-4.762
2019.07.22 14:06:22.245,-3.435,-9.889,2.940,-1.373,-10.693,-9.982,17.660,-7.228,-10.006,-12.958,-7.730,-12.118,-16.845,-32.616,-19.852,-24.678,7.361,5.857,-6.173
2019.07.22 14:06:22.249,-4.930,-14.369,-1.899,-1.355,-14.083,-13.424,12.465,-5.110,-13.917,-14.169,-9.201,-13.618,-18.519,-32.100,-20.913,-21.782,6.267,7.454,-6.631
2019.07.22 14:06:22.253,-9.424,-18.373,-8.671,-1.286,-18.233,-16.889,6.427,-1.809,-18.299,-15.836,-10.065,-13.307,-19.261,-30.642,-18.818,-17.223,3.246,7.849,-6.297
2019.07.22 14:06:22.257,-16.842,-21.641,-16.050,-1.934,-23.346,-20.118,-0.038,2.017,-23.155,-17.944,-10.969,-11.739,-19.849,-29.361,-15.949,-14.177,-1.097,7.100,-5.607
2019.07.22 14:06:22.261,-25.234,-23.900,-22.289,-3.796,-28.900,-22.788,-6.035,5.408,-28.198,-19.924,-12.417,-9.406,-20.969,-28.737,-14.421,-13.716,-5.350,5.792,-4.989
2019.07.22 14:06:22.265,-31.725,-24.941,-26.089,-6.887,-33.706,-24.730,-10.573,7.579,-32.702,-21.057,-14.236,-6.453,-22.537,-28.419,-14.593,-14.411,-8.325,4.556,-4.613
2019.07.22 14:06:22.269,-34.135,-24.846,-27.201,-10.804,-36.491,-26.064,-13.272,8.204,-35.743,-20.968,-15.599,-2.846,-23.646,-27.591,-15.193,-14.010,-9.810,3.623,-4.350
2019.07.22 14:06:22.273,-32.201,-24.131,-26.330,-14.899,-36.610,-27.105,-14.853,7.383,-36.702,-19.855,-15.635,1.208,-23.223,-25.612,-14.768,-11.607,-10.488,2.768,-3.943
2019.07.22 14:06:22.277,-27.594,-23.536,-24.453,-18.402,-34.405,-28.039,-16.835,5.385,-35.628,-18.287,-14.122,5.058,-20.881,-22.449,-13.084,-8.395,-11.118,1.658,-3.240
2019.07.22 14:06:22.281,-22.728,-23.494,-22.092,-20.500,-30.938,-28.631,-20.433,2.459,-33.149,-16.774,-11.710,7.843,-17.259,-18.639,-11.253,-6.436,-11.743,0.279,-2.329
2019.07.22 14:06:22.285,-19.221,-23.661,-19.106,-20.499,-27.299,-28.230,-25.382,-1.141,-29.997,-15.440,-9.437,9.028,-13.571,-14.876,-10.589,-6.639,-11.591,-0.965,-1.479
2019.07.22 14:06:22.289,-17.114,-22.952,-15.106,-18.122,-24.030,-26.164,-29.665,-5.002,-26.502,-14.030,-7.937,8.783,-10.688,-11.565,-11.271,-7.826,-9.763,-1.550,-0.961
2019.07.22 14:06:22.293,-15.319,-20.243,-10.111,-13.806,-21.045,-22.287,-30.579,-8.510,-22.493,-12.195,-6.964,7.862,-8.501,-8.693,-12.032,-7.728,-6.123,-1.290,-0.859
2019.07.22 14:06:22.297,-12.871,-15.330,-4.868,-8.710,-18.066,-17.290,-26.550,-11.060,-17.664,-9.821,-5.642,7.062,-6.072,-6.063,-11.138,-5.071,-1.643,-0.543,-1.024
2019.07.22 14:06:22.301,-9.953,-9.459,-0.576,-4.311,-15.142,-12.495,-18.416,-12.388,-12.109,-7.152,-3.249,6.688,-2.473,-3.641,-7.783,-0.899,2.092,0.020,-1.190
2019.07.22 14:06:22.305,-7.896,-4.954,1.756,-1.736,-12.800,-9.223,-9.171,-12.755,-6.572,-4.649,0.094,6.433,2.343,-1.689,-2.746,2.072,3.832,-0.109,-1.166
2019.07.22 14:06:22.309,-8.191,-4.053,1.826,-1.259,-11.678,-8.125,-2.228,-12.769,-2.155,-2.726,3.375,5.770,7.316,-0.551,2.187,1.593,3.349,-0.927,-0.966
2019.07.22 14:06:22.313,-11.331,-7.682,0.076,-2.295,-11.964,-8.902,0.606,-12.930,0.295,-1.549,5.363,4.507,10.880,-0.276,5.470,-2.218,1.399,-1.973,-0.780
2019.07.22 14:06:22.317,-16.408,-14.978,-2.686,-3.883,-13.152,-10.582,0.028,-13.250,0.692,-1.016,5.479,3.059,11.979,-0.436,6.684,-6.772,-0.924,-2.710,-0.812
2019.07.22 14:06:22.321,-21.804,-23.929,-5.745,-5.323,-14.372,-12.123,-1.602,-13.242,-0.274,-0.879,4.230,2.197,10.751,-0.329,6.476,-8.807,-2.894,-2.915,-1.082
2019.07.22 14:06:22.325,-26.442,-32.727,-8.699,-6.506,-15.106,-12.963,-2.143,-12.325,-1.618,-0.882,2.876,2.517,8.431,0.517,5.821,-6.673,-4.420,-2.769,-1.361
2019.07.22 14:06:22.329,-30.667,-40.971,-11.424,-7.766,-15.730,-13.183,-1.171,-10.325,-2.677,-0.834,2.594,4.029,6.562,1.956,5.391,-1.383,-5.815,-2.628,-1.274
2019.07.22 14:06:22.333,-36.128,-49.910,-13.976,-9.440,-17.432,-13.275,-0.035,-7.680,-3.442,-0.588,3.737,6.193,6.096,3.273,5.485,4.291,-7.389,-2.698,-0.534
2019.07.22 14:06:22.337,-44.761,-61.585,-16.593,-11.538,-21.510,-13.735,-0.577,-5.165,-4.416,-0.001,5.677,8.330,6.954,3.715,6.351,7.844,-9.256,-2.905,0.873
2019.07.22 14:06:22.341,-57.602,-77.398,-19.742,-13.755,-28.505,-14.773,-3.615,-3.355,-6.149,1.068,7.299,10.056,8.273,3.131,8.297,8.637,-11.444,-3.029,2.670
2019.07.22 14:06:22.345,-74.143,-97.019,-24.004,-15.779,-37.764,-16.280,-8.366,-2.236,-8.808,2.704,7.744,11.397,9.073,2.246,11.339,7.981,-14.073,-2.948,4.460
2019.07.22 14:06:22.349,-92.527,-118.269,-29.707,-17.565,-47.721,-17.988,-13.150,-1.265,-12.044,4.874,6.901,12.544,8.877,2.306,14.715,7.861,-17.331,-2.743,5.955
2019.07.22 14:06:22.353,-110.302,-138.026,-36.496,-19.321,-56.691,-19.629,-16.657,0.171,-15.190,7.412,5.368,13.503,7.905,4.320,16.955,9.417,-21.205,-2.590,7.097
2019.07.22 14:06:22.357,-125.240,-153.564,-43.208,-21.225,-63.642,-20.990,-18.722,2.281,-17.613,10.080,3.993,13.974,6.822,8.392,16.726,12.306,-25.227,-2.550,7.977
2019.07.22 14:06:22.361,-135.909,-163.585,-48.283,-23.123,-68.488,-21.851,-20.038,4.726,-18.981,12.684,3.344,13.593,6.273,13.634,13.927,15.226,-28.532,-2.493,8.656
2019.07.22 14:06:22.365,-141.952,-168.429,-50.531,-24.496,-71.803,-21.926,-21.218,6.894,-19.328,15.156,3.427,12.324,6.520,18.701,10.100,17.033,-30.269,-2.230,9.026
2019.07.22 14:06:22.369,-144.135,-169.520,-49.769,-24.734,-74.243,-20.898,-22.069,8.342,-18.943,17.548,3.781,10.659,7.342,22.565,7.623,17.538,-30.094,-1.733,8.859
2019.07.22 14:06:22.373,-144.122,-168.469,-46.890,-23.515,-76.086,-18.590,-21.708,9.023,-18.177,19.922,3.811,9.417,8.217,24.983,8.171,17.475,-28.369,-1.245,8.000
2019.07.22 14:06:22.377,-143.896,-166.394,-43.292,-21.012,-77.116,-15.146,-19.334,9.166,-17.254,22.206,3.152,9.240,8.631,26.371,11.557,17.806,-25.899,-1.131,6.536
2019.07.22 14:06:22.381,-144.852,-163.739,-40.061,-17.778,-76.852,-11.117,-14.933,8.943,-16.142,24.129,1.863,10.129,8.366,27.243,15.866,18.920,-23.412,-1.590,4.786
2019.07.22 14:06:22.385,-147.004,-160.522,-37.475,-14.431,-74.882,-7.337,-9.310,8.264,-14.552,25.317,0.387,11.369,7.644,27.705,18.806,20.287,-21.172,-2.460,3.123
2019.07.22 14:06:22.389,-148.848,-156.723,-35.091,-11.401,-71.132,-4.627,-3.465,6.896,-12.079,25.514,-0.686,11.923,7.066,27.411,19.223,20.767,-18.992,-3.281,1.750
2019.07.22 14:06:22.393,-148.199,-152.516,-32.303,-8.883,-65.984,-3.454,2.069,4.804,-8.476,24.797,-0.914,11.066,7.328,26.000,17.669,19.388,-16.609,-3.596,0.644
2019.07.22 14:06:22.397,-143.663,-148.237,-28.907,-6.990,-60.246,-3.740,7.349,2.398,-3.936,23.586,-0.216,8.856,8.849,23.638,15.680,16.125,-14.103,-3.262,-0.296
2019.07.22 14:06:22.401,-135.809,-144.218,-25.320,-5.922,-55.001,-4.937,12.555,0.424,0.796,22.422,1.121,6.149,11.459,21.182,14.480,12.206,-12.034,-2.572,-1.033
2019.07.22 14:06:22.405,-127.204,-140.649,-22.374,-5.964,-51.351,-6.339,17.426,-0.458,4.624,21.616,2.621,4.136,14.369,19.779,14.178,9.636,-11.196,-2.086,-1.312
2019.07.22 14:06:22.409,-121.117,-137.580,-20.894,-7.310,-50.076,-7.458,21.170,-0.096,6.552,21.038,3.897,3.695,16.480,20.142,14.028,10.060,-12.171,-2.316,-0.810
2019.07.22 14:06:22.413,-119.653,-134.998,-21.333,-9.836,-51.323,-8.227,22.939,1.049,6.162,20.223,4.827,4.912,16.916,22.016,13.341,13.548,-14.968,-3.468,0.578
2019.07.22 14:06:22.417,-122.521,-132.886,-23.611,-13.002,-54.501,-8.929,22.453,2.206,3.834,18.755,5.532,7.057,15.481,24.205,12.179,18.137,-18.957,-5.358,2.570
2019.07.22 14:06:22.421,-127.241,-131.166,-27.126,-15.989,-58.465,-9.903,20.208,2.779,0.539,16.656,6.169,8.993,12.773,25.188,11.230,20.663,-23.098,-7.530,4.597
2019.07.22 14:06:22.425,-130.622,-129.610,-30.911,-18.001,-61.919,-11.256,17.094,2.653,-2.665,14.448,6.719,9.777,9.858,23.930,11.091,18.625,-26.348,-9.453,6.115
2019.07.22 14:06:22.429,-130.482,-127.805,-33.908,-18.592,-63.839,-12.792,13.807,2.130,-5.137,12.818,6.939,9.123,7.684,20.412,11.682,11.974,-28.036,-10.709,6.895
2019.07.22 14:06:22.433,-126.524,-125.279,-35.340,-17.836,-63.711,-14.178,10.553,1.609,-6.865,12.092,6.522,7.500,6.586,15.597,12.346,3.547,-28.092,-11.114,7.069
2019.07.22 14:06:22.437,-119.941,-121.706,-35.051,-16.243,-61.518,-15.191,7.271,1.310,-8.269,11.950,5.338,5.839,6.177,10.942,12.482,-2.391,-27.021,-10.746,6.909
2019.07.22 14:06:22.441,-112.298,-117.061,-33.593,-14.479,-57.594,-15.812,4.051,1.248,-9.768,11.628,3.561,5.046,5.690,7.744,12.066,-2.738,-25.638,-9.898,6.544
2019.07.22 14:06:22.445,-104.602,-111.589,-31.897,-13.009,-52.497,-16.106,1.271,1.434,-11.416,10.509,1.571,5.559,4.543,6.679,11.555,2.409,-24.643,-8.942,5.843
2019.07.22 14:06:22.449,-97.196,-105.620,-30.670,-11.889,-46.953,-15.999,-0.744,2.045,-12.814,8.639,-0.272,7.163,2.773,7.663,11.304,9.720,-24.233,-8.152,4.565
2019.07.22 14:06:22.453,-90.262,-99.369,-29.892,-10.810,-41.787,-15.229,-2.202,3.342,-13.343,6.755,-1.799,9.095,1.070,9.994,11.111,14.716,-23.983,-7.582,2.635
2019.07.22 14:06:22.457,-84.272,-92.884,-28.833,-9.415,-37.715,-13.563,-3.914,5.357,-12.549,5.757,-3.006,10.384,0.389,12.662,10.377,14.584,-23.125,-7.075,0.305
2019.07.22 14:06:22.461,-79.821,-86.171,-26.653,-7.680,-35.036,-11.147,-6.742,7.638,-10.420,6.001,-3.900,10.268,1.375,14.691,8.773,9.805,-21.099,-6.428,-1.930
2019.07.22 14:06:22.465,-76.957,-79.367,-23.172,-6.098,-33.408,-8.650,-10.789,9.312,-7.421,6.976,-4.369,8.524,3.964,15.453,6.757,3.553,-18.044,-5.599,-3.587
2019.07.22 14:06:22.469,-74.683,-72.769,-19.210,-5.489,-31.935,-6.998,-15.053,9.528,-4.265,7.646,-4.236,5.605,7.379,14.872,5.406,-0.576,-14.869,-4.809,-4.420
2019.07.22 14:06:22.473,-71.242,-66.658,-16.143,-6.494,-29.623,-6.788,-17.923,7.997,-1.586,7.211,-3.442,2.501,10.551,13.422,5.651,-0.803,-12.772,-4.436,-4.445
2019.07.22 14:06:22.477,-65.172,-61.036,-14.928,-9.047,-25.947,-7.789,-18.255,5.230,0.329,5.709,-2.173,0.369,12.690,11.888,7.568,2.124,-12.469,-4.761,-3.806
2019.07.22 14:06:22.481,-56.391,-55.510,-15.304,-12.207,-21.166,-8.944,-16.194,2.288,1.601,3.972,-0.789,0.024,13.674,10.950,10.362,5.977,-13.636,-5.744,-2.634
2019.07.22 14:06:22.485,-46.465,-49.465,-15.820,-14.509,-16.142,-8.939,-13.080,0.171,2.599,2.978,0.435,1.560,14.015,10.826,13.035,8.784,-14.977,-7.009,-1.023
2019.07.22 14:06:22.489,-37.723,-42.453,-14.749,-14.700,-11.779,-6.997,-10.459,-0.694,3.673,3.090,1.513,4.277,14.447,11.186,15.101,9.863,-14.934,-8.040,0.871
2019.07.22 14:06:22.493,-31.797,-34.519,-11.297,-12.425,-8.462,-3.361,-8.942,-0.553,4.941,3.810,2.715,7.019,15.414,11.427,16.710,9.607,-12.638,-8.476,2.759
2019.07.22 14:06:22.497,-28.589,-26.229,-6.230,-8.445,-5.905,0.865,-7.795,0.033,6.275,4.222,4.276,8.746,16.807,11.122,18.099,8.571,-8.498,-8.283,4.277
2019.07.22 14:06:22.501,-26.432,-18.368,-1.468,-4.270,-3.485,4.379,-5.552,0.674,7.475,3.774,6.115,9.037,18.147,10.348,19.025,6.893,-4.043,-7.706,5.162
2019.07.22 14:06:22.505,-23.306,-11.519,1.101,-1.408,-0.792,6.375,-1.174,1.384,8.523,2.742,7.811,8.201,19.056,9.644,18.845,4.541,-1.111,-7.066,5.381
2019.07.22 14:06:22.509,-18.258,-5.839,0.774,-0.671,2.024,6.831,5.126,2.386,9.683,1.988,8.913,6.948,19.662,9.603,17.260,1.944,-0.870,-6.564,5.111
2019.07.22 14:06:22.513,-12.025,-1.153,-1.600,-1.879,4.362,6.280,11.983,3.737,11.348,2.213,9.344,5.862,20.584,10.403,15.016,0.150,-3.237,-6.221,4.572
2019.07.22 14:06:22.517,-6.453,2.735,-4.236,-4.065,5.630,5.359,17.722,5.109,13.689,3.318,9.529,5.056,22.440,11.602,13.690,0.134,-7.013,-5.957,3.890
2019.07.22 14:06:22.521,-3.189,5.816,-5.544,-5.975,5.687,4.501,21.278,5.978,16.359,4.412,10.105,4.261,25.207,12.366,14.493,1.797,-10.571,-5.704,3.102
2019.07.22 14:06:22.525,-2.575,7.922,-5.027,-6.614,4.956,3.919,22.533,6.067,18.498,4.490,11.374,3.237,27.930,11.984,16.987,3.650,-12.684,-5.451,2.300
2019.07.22 14:06:22.529,-3.494,8.993,-3.417,-5.598,4.140,3.730,21.999,5.656,19.108,3.240,12.952,2.162,29.071,10.310,18.911,3.670,-13.012,-5.212,1.727
2019.07.22 14:06:22.533,-4.187,9.310,-2.088,-3.252,3.778,3.974,20.255,5.472,17.602,1.332,13.897,1.620,27.357,7.841,17.541,0.768,-12.061,-4.976,1.691
2019.07.22 14:06:22.537,-3.405,9.479,-2.160,-0.445,3.973,4.479,17.673,6.185,14.162,-0.044,13.286,2.172,22.600,5.385,11.709,-4.299,-10.713,-4.713,2.307
2019.07.22 14:06:22.541,-1.079,10.147,-3.839,1.770,4.440,4.785,14.579,7.921,9.684,-0.033,10.828,3.827,15.922,3.591,2.926,-9.388,-9.668,-4.414,3.292
2019.07.22 14:06:22.545,1.914,11.700,-6.289,2.652,4.827,4.372,11.552,10.202,5.333,1.331,7.090,5.861,9.212,2.657,-5.385,-12.497,-9.081,-4.111,4.020
2019.07.22 14:06:22.549,4.648,14.190,-8.013,2.183,5.049,3.163,9.440,12.375,2.014,3.292,3.172,7.187,4.148,2.412,-10.082,-13.127,-8.554,-3.812,3.881
2019.07.22 14:06:22.553,7.027,17.557,-7.538,1.213,5.449,1.938,8.991,14.208,0.098,5.101,0.109,7.053,1.431,2.659,-10.287,-12.385,-7.416,-3.413,2.681
2019.07.22 14:06:22.557,10.012,21.920,-4.086,1.129,6.686,2.176,10.365,16.113,-0.473,6.676,-1.601,5.553,0.689,3.481,-7.660,-11.789,-5.098,-2.678,0.795
2019.07.22 14:06:22.561,15.017,27.638,2.024,3.157,9.440,5.243,12.975,18.767,0.117,8.636,-2.047,3.576,1.040,5.258,-4.812,-11.815,-1.436,-1.367,-1.077
2019.07.22 14:06:22.565,22.884,34.999,9.425,7.626,14.055,11.385,15.816,22.375,1.767,11.650,-1.616,2.204,1.827,8.358,-3.203,-11.468,3.234,0.539,-2.377
2019.07.22 14:06:22.569,33.102,43.749,16.242,13.663,20.283,19.242,18.063,26.175,4.428,15.657,-0.673,2.015,2.997,12.732,-2.218,-9.226,8.192,2.700,-3.033
2019.07.22 14:06:22.573,43.820,52.860,20.922,19.558,27.258,26.398,19.506,28.662,7.894,19.615,0.566,2.778,4.873,17.750,-0.124,-4.559,12.597,4.499,-3.424
2019.07.22 14:06:22.577,52.688,60.810,22.957,23.648,33.755,30.693,20.526,28.473,11.700,22.057,1.926,3.733,7.605,22.400,4.018,1.319,15.801,5.359,-4.026
2019.07.22 14:06:22.581,58.053,66.286,23.074,25.191,38.671,31.467,21.715,25.330,15.251,22.066,3.143,4.187,10.774,25.766,9.154,6.126,17.589,5.103,-5.032
2019.07.22 14:06:22.585,59.796,68.861,22.740,24.672,41.519,29.848,23.465,20.355,18.103,19.923,3.895,3.936,13.458,27.441,12.796,8.064,18.242,4.118,-6.252
2019.07.22 14:06:22.589,59.302,69.171,23.228,23.356,42.610,27.846,25.807,15.457,20.141,16.897,3.955,3.223,14.713,27.581,12.846,6.953,18.387,3.173,-7.334
2019.07.22 14:06:22.593,58.560,68.427,24.841,22.380,42.789,26.872,28.523,12.179,21.456,14.305,3.326,2.310,14.053,26.557,9.126,4.012,18.661,2.995,-8.099
2019.07.22 14:06:22.597,58.959,67.587,26.770,22.001,42.804,26.742,31.325,10.814,22.029,12.530,2.174,1.080,11.603,24.476,3.340,0.523,19.352,3.844,-8.682
2019.07.22 14:06:22.601,60.521,66.754,27.702,21.500,42.738,25.892,33.927,10.378,21.531,10.749,0.637,-0.969,7.873,20.958,-2.438,-3.415,20.210,5.368,-9.368
2019.07.22 14:06:22.605,62.042,65.241,26.744,19.778,41.941,22.654,36.007,9.453,19.488,7.623,-1.322,-4.325,3.412,15.412,-7.415,-8.900,20.577,6.817,-10.291
2019.07.22 14:06:22.609,62.042,62.242,24.024,16.245,39.574,16.659,37.225,7.255,15.752,2.456,-3.832,-8.973,-1.353,7.692,-12.424,-16.935,19.807,7.488,-11.276
2019.07.22 14:06:22.613,59.851,57.650,20.588,11.372,35.428,9.363,37.365,4.177,10.896,-4.028,-6.869,-14.215,-6.053,-1.338,-18.711,-26.919,17.749,7.133,-11.965
2019.07.22 14:06:22.617,56.116,52.394,17.692,6.567,30.358,3.278,36.540,1.447,6.135,-9.889,-10.087,-18.966,-10.255,-9.809,-26.292,-36.287,14.976,6.075,-12.144
2019.07.22 14:06:22.621,52.359,48.027,16.022,3.426,25.940,0.446,35.218,0.247,2.730,-13.081,-12.927,-22.298,-13.518,-15.577,-33.367,-41.815,12.545,4.990,-11.968
2019.07.22 14:06:22.625,49.938,45.811,15.367,2.854,23.476,1.183,33.978,0.948,1.238,-12.716,-14.967,-23.873,-15.654,-17.320,-37.411,-41.739,11.392,4.489,-11.895
2019.07.22 14:06:22.629,49.131,45.902,14.896,4.575,23.056,3.939,33.116,3.023,1.161,-9.631,-16.233,-23.975,-16.941,-15.306,-37.081,-37.135,11.719,4.752,-12.368
2019.07.22 14:06:22.633,49.011,47.204,13.776,7.312,23.427,6.325,32.393,5.580,1.307,-5.860,-17.175,-23.167,-18.020,-11.273,-33.354,-31.409,12.812,5.429,-13.481
2019.07.22 14:06:22.637,48.176,48.016,11.683,9.500,22.852,6.599,31.153,8.037,0.612,-3.360,-18.292,-21.869,-19.459,-7.411,-28.946,-28.164,13.455,5.850,-14.878
2019.07.22 14:06:22.641,45.820,47.078,8.913,10.111,20.407,4.652,28.756,10.381,-1.143,-2.844,-19.675,-20.135,-21.274,-5.038,-26.413,-28.848,12.723,5.435,-15.968
2019.07.22 14:06:22.645,42.367,44.349,6.147,9.124,16.775,1.913,25.037,12.860,-3.239,-3.490,-20.857,-17.755,-22.825,-3.871,-26.440,-31.850,10.610,4.047,-16.270
2019.07.22 14:06:22.649,39.239,41.007,4.112,7.386,13.884,0.314,20.476,15.435,-4.592,-3.665,-21.113,-14.569,-23.214,-2.390,-27.578,-33.683,8.058,2.091,-15.667
2019.07.22 14:06:22.653,37.936,38.697,3.349,5.998,13.619,1.049,15.992,17.516,-4.517,-2.153,-19.991,-10.746,-21.940,0.892,-27.553,-31.448,6.325,0.282,-14.411
2019.07.22 14:06:22.657,39.093,38.495,4.118,5.581,16.493,3.879,12.527,18.226,-3.133,0.960,-17.660,-6.846,-19.301,6.172,-25.015,-24.894,6.139,-0.763,-12.924
2019.07.22 14:06:22.661,42.129,40.262,6.353,5.883,21.253,7.356,10.675,16.986,-1.131,4.339,-14.801,-3.619,-16.226,11.994,-20.406,-16.657,7.217,-0.877,-11.548
2019.07.22 14:06:22.665,45.678,42.784,9.600,5.976,25.695,9.745,10.540,13.962,0.816,6.304,-12.131,-1.635,-13.649,16.134,-15.413,-10.506,8.502,-0.414,-10.399
2019.07.22 14:06:22.669,48.441,44.594,13.043,4.915,28.089,10.032,11.785,10.010,2.502,5.952,-9.964,-0.954,-11.915,17.120,-11.623,-8.791,8.907,0.010,-9.370
2019.07.22 14:06:22.673,49.858,44.917,15.713,2.468,28.187,8.429,13.760,6.167,4.138,3.741,-8.128,-1.013,-10.676,15.317,-9.504,-10.831,8.039,-0.080,-8.242
2019.07.22 14:06:22.677,50.217,44.131,16.879,-0.592,27.143,6.136,15.671,3.100,5.912,1.152,-6.292,-0.872,-9.332,12.749,-8.397,-13.364,6.373,-0.730,-6.842
2019.07.22 14:06:22.681,50.231,43.450,16.425,-2.853,26.497,4.566,16.783,0.884,7.602,-0.308,-4.360,0.276,-7.629,11.723,-7.295,-12.820,4.815,-1.573,-5.173
2019.07.22 14:06:22.685,50.463,44.064,14.939,-3.126,27.039,4.524,16.684,-0.781,8.601,-0.077,-2.620,2.554,-5.905,13.196,-5.650,-7.890,4.039,-2.116,-3.475
2019.07.22 14:06:22.689,50.990,46.292,13.408,-1.259,28.381,5.795,15.509,-2.176,8.356,1.151,-1.508,5.165,-4.803,16.058,-3.603,-0.662,4.102,-2.082,-2.177
2019.07.22 14:06:22.693,51.462,49.311,12.667,1.637,29.447,7.356,13.940,-3.336,6.844,1.944,-1.239,6.708,-4.691,17.855,-1.684,4.543,4.580,-1.562,-1.718
2019.07.22 14:06:22.697,51.421,51.610,12.940,3.752,29.376,8.017,12.897,-4.141,4.667,1.092,-1.627,5.946,-5.327,16.486,-0.425,3.940,5.007,-0.882,-2.321
2019.07.22 14:06:22.701,50.616,51.868,13.752,3.620,28.106,7.103,13.039,-4.563,2.667,-1.631,-2.252,2.601,-6.028,11.674,-0.230,-3.136,5.201,-0.326,-3.821
2019.07.22 14:06:22.705,49.128,49.692,14.253,1.004,26.251,4.791,14.397,-4.779,1.377,-5.385,-2.799,-2.348,-6.217,5.216,-1.420,-13.587,5.207,0.070,-5.714
2019.07.22 14:06:22.709,47.272,45.780,13.706,-2.922,24.494,1.951,16.383,-5.015,0.749,-8.806,-3.261,-7.129,-5.853,-0.139,-4.127,-22.324,5.007,0.491,-7.391
2019.07.22 14:06:22.713,45.377,41.476,11.875,-6.227,23.069,-0.358,18.203,-5.252,0.364,-10.791,-3.825,-10.151,-5.379,-2.356,-7.936,-25.339,4.351,1.125,-8.457
2019.07.22 14:06:22.717,43.589,38.021,9.098,-7.285,21.748,-1.407,19.370,-5.101,-0.072,-10.966,-4.570,-10.871,-5.229,-1.180,-11.634,-22.038,2.940,1.966,-8.894
2019.07.22 14:06:22.721,41.803,35.998,6.096,-5.622,20.247,-1.046,19.946,-3.995,-0.381,-9.646,-5.280,-9.960,-5.340,2.046,-13.532,-15.318,0.824,2.805,-8.972
2019.07.22 14:06:22.725,39.761,35.220,3.645,-2.063,18.608,0.379,20.365,-1.611,-0.016,-7.423,-5.569,-8.674,-5.105,5.534,-12.395,-9.427,-1.380,3.401,-8.977
2019.07.22 14:06:22.729,37.290,35.040,2.288,1.825,17.187,2.318,20.989,1.813,1.465,-4.761,-5.207,-7.899,-3.845,8.231,-8.409,-7.175,-2.759,3.700,-8.977
2019.07.22 14:06:22.733,34.533,34.803,2.165,4.598,16.284,4.281,21.779,5.524,3.931,-1.897,-4.362,-7.578,-1.417,10.210,-3.331,-8.417,-2.702,3.881,-8.805
2019.07.22 14:06:22.737,32.017,34.157,3.009,5.584,15.788,5.958,22.308,8.642,6.618,0.977,-3.498,-6.917,1.557,12.109,0.481,-10.737,-1.362,4.196,-8.268
2019.07.22 14:06:22.741,30.437,33.097,4.313,5.013,15.214,7.192,22.072,10.612,8.524,3.490,-3.011,-5.171,4.033,14.246,1.586,-11.613,0.455,4.740,-7.375
2019.07.22 14:06:22.745,30.234,31.843,5.615,3.667,14.129,7.928,20.848,11.398,8.982,5.098,-2.902,-2.362,5.217,16.159,0.401,-10.322,1.924,5.334,-6.395
2019.07.22 14:06:22.749,31.239,30.674,6.766,2.368,12.600,8.191,18.822,11.306,8.003,5.338,-2.798,0.628,5.031,16.947,-1.223,-8.193,2.882,5.644,-5.665
2019.07.22 14:06:22.753,32.679,29.842,8.007,1.614,11.240,8.107,16.445,10.625,6.180,4.145,-2.293,2.626,4.036,16.033,-1.512,-7.208,3.963,5.435,-5.333
2019.07.22 14:06:22.757,33.643,29.535,9.748,1.518,10.782,7.882,14.206,9.391,4.260,1.963,-1.340,2.931,2.919,13.689,-0.218,-8.231,6.055,4.771,-5.252
2019.07.22 14:06:22.761,33.730,29.847,12.156,1.983,11.496,7.723,12.475,7.444,2.722,-0.463,-0.332,1.654,1.990,10.863,1.174,-10.366,9.496,3.999,-5.119
2019.07.22 14:06:22.765,33.412,30.742,14.849,2.920,12.948,7.757,11.488,4.724,1.628,-2.468,0.214,-0.556,1.097,8.479,0.668,-11.860,13.670,3.539,-4.752
2019.07.22 14:06:22.769,33.771,32.032,16.979,4.337,14.291,8.003,11.361,1.522,0.790,-3.759,0.092,-3.094,-0.027,6.814,-2.507,-11.701,17.351,3.625,-4.247
2019.07.22 14:06:22.773,35.712,33.425,17.725,6.248,14.863,8.427,12.037,-1.517,0.049,-4.431,-0.401,-5.743,-1.332,5.469,-7.056,-10.481,19.518,4.196,-3.900
2019.07.22 14:06:22.777,39.180,34.616,16.878,8.482,14.612,8.990,13.204,-3.660,-0.550,-4.753,-0.713,-8.511,-2.358,3.925,-10.353,-9.808,19.967,4.963,-3.944
2019.07.22 14:06:22.781,42.974,35.386,15.042,10.549,13.999,9.625,14.317,-4.429,-0.820,-4.933,-0.521,-11.193,-2.580,2.182,-10.253,-10.830,19.242,5.595,-4.344
2019.07.22 14:06:22.785,45.343,35.624,13.237,11.720,13.497,10.149,14.808,-3.809,-0.634,-5.043,-0.046,-13.139,-1.908,0.900,-6.634,-13.196,17.983,5.873,-4.813
2019.07.22 14:06:22.789,44.980,35.316,12.138,11.338,13.111,10.212,14.368,-2.203,-0.110,-5.151,0.071,-13.549,-0.905,0.897,-1.544,-15.356,16.306,5.733,-5.033
2019.07.22 14:06:22.793,41.729,34.533,11.532,9.241,12.325,9.408,13.107,-0.232,0.357,-5.477,-0.740,-12.090,-0.501,2.408,2.096,-15.912,13.790,5.235,-4.880
2019.07.22 14:06:22.797,36.545,33.457,10.458,5.997,10.548,7.520,11.425,1.495,0.249,-6.402,-2.516,-9.304,-1.409,4.739,2.295,-14.815,10.094,4.519,-4.460
2019.07.22 14:06:22.801,30.822,32.388,7.997,2.762,7.677,4.734,9.703,2.525,-0.833,-8.253,-4.689,-6.405,-3.658,6.630,-0.964,-13.348,5.638,3.770,-3.961
2019.07.22 14:06:22.805,25.664,31.660,4.127,0.719,4.341,1.616,8.062,2.621,-2.943,-11.026,-6.449,-4.552,-6.592,7.086,-5.999,-12.919,1.667,3.192,-3.472
2019.07.22 14:06:22.809,21.619,31.438,-0.050,0.394,1.595,-1.199,6.408,1.797,-5.708,-14.250,-7.275,-4.142,-9.301,6.027,-10.640,-13.771,-0.465,2.928,-2.944
2019.07.22 14:06:22.813,18.938,31.508,-2.944,1.286,0.289,-3.402,4.695,0.340,-8.438,-17.127,-7.224,-4.668,-11.144,4.274,-13.425,-14.756,-0.288,2.961,-2.321
2019.07.22 14:06:22.817,17.933,31.251,-3.564,2.116,0.560,-5.177,3.126,-1.233,-10.416,-18.899,-6.801,-5.220,-12.022,2.885,-14.067,-14.412,1.341,3.079,-1.688
2019.07.22 14:06:22.821,18.940,29.894,-2.228,1.594,1.804,-6.986,2.061,-2.337,-11.226,-19.212,-6.565,-5.202,-12.265,2.368,-13.124,-12.371,2.744,2.962,-1.266
2019.07.22 14:06:22.825,21.853,26.968,-0.347,-0.763,3.126,-9.121,1.664,-2.572,-10.964,-18.266,-6.774,-4.676,-12.313,2.371,-11.374,-9.829,2.551,2.391,-1.229
2019.07.22 14:06:22.829,25.700,22.677,0.581,-4.315,3.930,-11.371,1.619,-1.950,-10.164,-16.666,-7.315,-4.107,-12.463,2.077,-9.411,-8.618,0.604,1.418,-1.504
2019.07.22 14:06:22.833,28.808,17.909,0.017,-7.753,4.228,-13.111,1.227,-0.934,-9.457,-15.089,-7.898,-3.796,-12.800,0.950,-7.630,-9.654,-2.055,0.376,-1.754
2019.07.22 14:06:22.837,29.662,13.853,-1.322,-9.986,4.500,-13.764,-0.099,-0.235,-9.154,-13.954,-8.296,-3.556,-13.279,-0.739,-6.383,-12.121,-4.073,-0.316,-1.599
2019.07.22 14:06:22.841,27.886,11.421,-2.112,-10.870,5.234,-13.271,-2.322,-0.450,-9.024,-13.269,-8.449,-2.903,-13.797,-2.030,-6.010,-14.124,-4.834,-0.447,-0.914
2019.07.22 14:06:22.845,24.545,10.850,-1.501,-11.218,6.504,-12.185,-4.688,-1.745,-8.464,-12.705,-8.409,-1.581,-14.191,-1.916,-6.685,-14.266,-4.854,-0.184,0.055
2019.07.22 14:06:22.849,21.413,11.707,0.235,-12.119,7.880,-11.277,-6.189,-3.780,-6.969,-11.826,-8.231,0.105,-14.243,-0.046,-8.230,-12.777,-5.248,0.001,0.849
2019.07.22 14:06:22.853,19.693,13.236,1.925,-14.065,8.707,-10.984,-6.266,-5.906,-4.586,-10.362,-7.942,1.457,-13.758,3.031,-10.093,-11.188,-6.754,-0.381,1.136
2019.07.22 14:06:22.857,19.180,14.785,2.423,-16.558,8.559,-11.130,-5.189,-7.520,-2.012,-8.387,-7.577,1.935,-12.728,6.202,-11.516,-10.826,-9.093,-1.517,0.939
2019.07.22 14:06:22.861,18.588,16.026,1.471,-18.462,7.549,-11.166,-3.798,-8.375,-0.218,-6.338,-7.213,1.585,-11.428,8.441,-11.800,-11.467,-11.164,-3.147,0.595
2019.07.22 14:06:22.865,16.831,16.930,-0.148,-18.815,6.300,-10.706,-2.831,-8.654,0.160,-4.850,-6.917,0.939,-10.303,9.309,-10.521,-11.390,-11.842,-4.684,0.473
2019.07.22 14:06:22.869,14.238,17.627,-1.223,-17.459,5.605,-9.882,-2.362,-8.782,-0.751,-4.468,-6.680,0.487,-9.706,9.014,-7.682,-8.908,-10.762,-5.510,0.692
2019.07.22 14:06:22.873,12.642,18.323,-0.985,-15.052,5.986,-9.206,-1.840,-9.110,-2.139,-5.345,-6.433,0.183,-9.662,8.091,-3.807,-4.103,-8.481,-5.277,1.042
2019.07.22 14:06:22.877,14.138,19.313,0.431,-12.504,7.429,-9.042,-0.665,-9.657,-3.048,-7.098,-6.175,-0.538,-9.882,6.995,0.084,0.759,-6.014,-4.049,1.165
2019.07.22 14:06:22.881,19.383,20.934,2.220,-10.374,9.425,-9.190,1.189,-10.099,-3.009,-8.920,-6.110,-2.205,-10.059,5.886,2.721,2.639,-4.163,-2.243,0.818
2019.07.22 14:06:22.885,26.744,23.346,3.561,-8.698,11.273,-8.974,3.054,-9.999,-2.332,-9.956,-6.636,-4.704,-10.195,4.678,3.071,-0.031,-3.188,-0.430,0.026
2019.07.22 14:06:22.889,33.035,26.234,4.140,-7.334,12.422,-7.846,4.061,-9.156,-1.835,-9.773,-8.095,-7.184,-10.691,3.234,0.866,-6.039,-2.949,0.890,-0.972
2019.07.22 14:06:22.893,35.383,28.684,4.187,-6.411,12.657,-5.998,3.847,-7.834,-2.244,-8.652,-10.470,-8.604,-12.058,1.503,-3.203,-12.091,-3.268,1.458,-1.894
2019.07.22 14:06:22.897,32.957,29.509,4.098,-6.411,12.052,-4.431,2.877,-6.693,-3.664,-7.511,-13.243,-8.526,-14.455,-0.472,-7.838,-15.067,-4.112,1.319,-2.570
2019.07.22 14:06:22.901,27.338,27.926,4.040,-7.725,10.782,-4.327,2.104,-6.419,-5.489,-7.439,-15.606,-7.485,-17.405,-2.605,-11.884,-14.135,-5.451,0.777,-2.975
2019.07.22 14:06:22.905,21.378,24.195,3.867,-10.066,9.001,-6.154,2.233,-7.278,-6.798,-9.072,-16.899,-6.605,-19.941,-4.800,-14.923,-11.170,-7.003,0.276,-3.186
2019.07.22 14:06:22.909,17.429,19.708,3.357,-12.300,6.881,-9.194,3.175,-8.859,-6.937,-12.177,-16.980,-6.750,-21.109,-6.909,-17.260,-9.205,-8.193,0.214,-3.320
2019.07.22 14:06:22.913,16.190,16.341,2.494,-12.960,4.752,-11.898,4.095,-10.238,-5.899,-15.696,-16.238,-7.870,-20.488,-8.686,-19.274,-10.137,-8.440,0.786,-3.496
2019.07.22 14:06:22.917,16.851,15.422,1.519,-11.166,3.177,-12.854,4.009,-10.489,-4.275,-18.256,-15.250,-9.073,-18.366,-9.824,-20.712,-13.415,-7.555,1.896,-3.794
2019.07.22 14:06:22.921,18.172,16.958,0.739,-7.271,2.792,-11.668,2.434,-9.251,-2.853,-18.872,-14.353,-9.359,-15.505,-10.065,-20.614,-16.609,-5.889,3.194,-4.184
2019.07.22 14:06:22.925,19.535,19.672,0.302,-2.747,3.968,-9.129,-0.337,-6.989,-2.136,-17.424,-13.475,-8.414,-12.685,-9.330,-18.060,-17.323,-4.095,4.227,-4.489
2019.07.22 14:06:22.929,21.178,21.835,0.152,0.661,6.506,-6.582,-3.487,-4.752,-2.095,-14.645,-12.325,-6.838,-10.383,-7.752,-13.197,-14.941,-2.680,4.632,-4.433
2019.07.22 14:06:22.933,23.585,22.310,0.188,1.917,9.605,-5.019,-6.162,-3.566,-2.262,-11.653,-10.758,-5.631,-8.733,-5.599,-7.610,-10.943,-1.733,4.278,-3.797
2019.07.22 14:06:22.937,26.707,21.131,0.423,1.144,12.194,-4.576,-7.846,-3.842,-2.085,-9.331,-8.967,-5.367,-7.693,-3.137,-3.524,-7.668,-1.038,3.306,-2.580
2019.07.22 14:06:22.941,29.688,19.249,0.947,-0.695,13.420,-4.744,-8.460,-5.170,-1.298,-7.942,-7.332,-5.701,-7.170,-0.557,-2.276,-6.557,-0.446,2.041,-1.022
2019.07.22 14:06:22.945,31.323,17.727,1.734,-2.581,13.009,-5.010,-8.281,-6.619,-0.117,-7.188,-6.060,-5.589,-7.012,2.018,-3.191,-7.197,-0.136,0.853,0.579
2019.07.22 14:06:22.949,30.801,17.001,2.490,-4.048,11.275,-5.342,-7.849,-7.335,0.849,-6.611,-4.975,-4.036,-6.919,4.456,-3.867,-7.804,-0.508,0.001,2.105
2019.07.22 14:06:22.953,28.163,16.725,2.767,-5.229,8.811,-6.124,-7.910,-7.032,0.905,-6.018,-3.667,-0.805,-6.482,6.573,-1.837,-6.677,-1.769,-0.439,3.709
2019.07.22 14:06:22.957,24.172,16.215,2.296,-6.400,6.146,-7.637,-9.242,-6.086,-0.363,-5.603,-1.924,3.392,-5.411,8.182,3.528,-3.503,-3.581,-0.577,5.618
2019.07.22 14:06:22.961,19.821,15.073,1.279,-7.501,3.572,-9.607,-12.299,-5.208,-2.844,-5.724,-0.057,7.316,-3.811,9.193,10.303,0.431,-5.115,-0.613,7.787
2019.07.22 14:06:22.965,15.903,13.471,0.333,-8.060,1.248,-11.240,-16.809,-4.954,-5.904,-6.506,1.183,9.865,-2.223,9.689,15.126,3.201,-5.530,-0.711,9.708
2019.07.22 14:06:22.969,12.907,11.957,0.084,-7.549,-0.631,-11.751,-21.651,-5.392,-8.638,-7.630,1.084,10.551,-1.322,9.902,15.418,3.642,-4.532,-0.891,10.600
2019.07.22 14:06:22.973,11.131,10.998,0.707,-5.867,-1.784,-10.943,-25.227,-6.122,-10.252,-8.473,-0.493,9.557,-1.446,10.100,11.128,2.172,-2.594,-1.020,9.911
2019.07.22 14:06:22.977,10.725,10.699,1.785,-3.495,-1.997,-9.344,-26.201,-6.561,-10.389,-8.508,-2.973,7.467,-2.313,10.461,4.749,0.471,-0.658,-0.896,7.752
2019.07.22 14:06:22.981,11.545,10.894,2.624,-1.212,-1.352,-7.782,-24.158,-6.289,-9.255,-7.663,-5.439,4.945,-3.202,10.996,-0.383,0.274,0.470,-0.392,4.905
2019.07.22 14:06:22.985,12.967,11.439,2.769,0.418,-0.309,-6.738,-19.745,-5.238,-7.496,-6.344,-7.230,2.532,-3.502,11.567,-2.250,2.132,0.577,0.448,2.347
2019.07.22 14:06:22.989,13.949,12.384,2.277,1.365,0.437,-6.010,-14.217,-3.654,-5.924,-5.123,-8.315,0.589,-3.224,11.940,-1.237,4.981,0.035,1.414,0.635
2019.07.22 14:06:22.993,13.451,13.790,1.510,2.016,0.233,-4.977,-8.756,-1.934,-5.233,-4.327,-9.141,-0.709,-3.059,11.850,0.537,6.822,-0.634,2.255,-0.356
2019.07.22 14:06:22.997,10.976,15.371,0.627,2.740,-1.302,-3.229,-4.056,-0.442,-5.814,-3.881,-10.108,-1.382,-3.886,11.029,0.961,6.030,-1.268,2.810,-1.148
2019.07.22 14:06:23.001,6.859,16.323,-0.731,3.491,-4.207,-1.078,-0.385,0.603,-7.696,-3.506,-11.107,-1.612,-6.087,9.257,-0.590,2.413,-2.241,3.066,-2.066
2019.07.22 14:06:23.005,2.086,15.618,-3.220,3.784,-8.220,0.517,2.075,1.162,-10.562,-3.109,-11.518,-1.629,-9.160,6.448,-3.088,-2.673,-4.162,3.088,-2.850
2019.07.22 14:06:23.009,-2.212,12.660,-7.133,3.073,-12.802,0.572,3.047,1.367,-13.824,-2.973,-10.683,-1.535,-11.972,2.769,-4.901,-7.210,-7.314,2.912,-2.841
2019.07.22 14:06:23.013,-5.221,7.887,-11.825,1.269,-17.116,-1.165,2.352,1.483,-16.728,-3.544,-8.473,-1.203,-13.446,-1.275,-5.090,-9.725,-11.236,2.508,-1.586
2019.07.22 14:06:23.017,-6.550,2.833,-15.775,-0.982,-20.079,-3.856,0.285,1.845,-18.540,-4.936,-5.505,-0.346,-13.214,-4.881,-3.923,-9.997,-14.771,1.863,0.646
2019.07.22 14:06:23.021,-6.031,-0.453,-17.356,-2.479,-20.629,-5.895,-2.263,2.750,-18.764,-6.558,-2.830,1.270,-11.763,-7.152,-2.359,-8.795,-16.586,1.110,2.898
2019.07.22 14:06:23.025,-3.514,-0.366,-15.842,-2.032,-18.176,-5.702,-4.171,4.339,-17.313,-7.265,-1.322,3.587,-10.005,-7.431,-1.108,-7.006,-15.857,0.573,4.126
2019.07.22 14:06:23.029,1.074,3.477,-11.904,0.911,-12.996,-2.538,-4.754,6.512,-14.529,-6.011,-1.219,6.197,-8.626,-5.599,-0.147,-4.917,-12.732,0.619,3.888
2019.07.22 14:06:23.033,7.403,10.057,-7.213,5.907,-6.244,3.123,-4.199,8.900,-11.029,-2.626,-2.105,8.462,-7.706,-2.214,0.956,-2.278,-8.272,1.403,2.572
2019.07.22 14:06:23.037,14.471,17.444,-3.403,11.645,0.493,9.818,-3.395,10.925,-7.460,1.883,-3.296,9.765,-6.852,1.629,2.325,0.954,-3.937,2.701,0.989
2019.07.22 14:06:23.041,20.716,23.649,-1.134,16.460,5.879,15.759,-3.229,11.923,-4.306,5.767,-4.277,9.709,-5.668,4.696,3.431,3.960,-0.907,3.967,-0.305
2019.07.22 14:06:23.045,24.592,27.397,0.083,19.009,9.300,19.578,-3.893,11.333,-1.841,7.479,-4.877,8.222,-4.143,6.094,3.509,5.263,0.374,4.639,-1.357
2019.07.22 14:06:23.049,25.307,28.479,1.234,18.769,10.860,20.805,-4.711,8.899,-0.172,6.511,-5.111,5.572,-2.653,5.650,2.411,3.840,0.209,4.466,-2.568
2019.07.22 14:06:23.053,23.258,27.610,2.882,16.165,10.985,19.919,-4.614,4.847,0.719,3.576,-4.917,2.355,-1.589,3.976,1.086,0.301,-0.731,3.636,-4.079
2019.07.22 14:06:23.057,19.870,25.956,4.721,12.303,10.049,18.001,-2.858,-0.089,1.015,0.039,-4.071,-0.568,-0.978,2.178,1.161,-2.958,-1.885,2.606,-5.389
2019.07.22 14:06:23.061,16.906,24.589,5.928,8.478,8.322,16.190,0.549,-4.855,1.098,-2.952,-2.373,-2.244,-0.418,1.327,3.816,-3.055,-3.044,1.781,-5.594
2019.07.22 14:06:23.065,15.640,24.137,5.980,5.693,6.228,15.200,4.952,-8.456,1.462,-5.037,0.050,-1.963,0.579,1.931,8.758,1.362,-4.247,1.287,-4.109
2019.07.22 14:06:23.069,16.331,24.710,5.209,4.408,4.509,15.113,9.495,-10.371,2.436,-6.576,2.624,0.360,2.115,3.691,14.113,8.877,-5.456,1.001,-1.264
2019.07.22 14:06:23.073,18.263,26.078,4.616,4.538,3.984,15.511,13.469,-10.764,3.876,-8.098,4.509,3.988,3.670,5.648,17.369,15.888,-6.343,0.788,1.744
2019.07.22 14:06:23.077,20.247,27.930,5.071,5.634,4.963,15.827,16.375,-10.341,5.082,-9.779,5.024,7.529,4.318,6.667,16.780,18.779,-6.378,0.689,3.562
2019.07.22 14:06:23.081,21.298,30.026,6.570,7.087,6.796,15.697,17.818,-9.916,5.121,-11.336,4.002,9.479,3.267,6.006,12.289,16.197,-5.210,0.907,3.528
2019.07.22 14:06:23.085,21.107,32.155,8.195,8.293,8.081,15.091,17.553,-9.942,3.422,-12.363,1.877,8.875,0.359,3.672,5.440,9.815,-3.019,1.587,2.017
2019.07.22 14:06:23.089,20.114,34.004,8.852,8.760,7.563,14.185,15.760,-10.310,0.266,-12.747,-0.576,5.703,-3.784,0.405,-1.576,3.051,-0.544,2.604,0.044
2019.07.22 14:06:23.093,19.153,35.101,8.203,8.243,5.113,13.132,13.276,-10.527,-3.215,-12.757,-2.629,0.860,-8.052,-2.678,-7.019,-1.259,1.295,3.582,-1.500
2019.07.22 14:06:23.097,18.911,35.007,7.009,6.867,2.009,11.945,11.385,-10.129,-5.616,-12.750,-3.918,-4.290,-11.371,-4.572,-10.189,-2.506,1.941,4.139,-2.392
2019.07.22 14:06:23.101,19.494,33.688,6.559,5.177,0.152,10.590,11.120,-9.012,-6.059,-12.765,-4.511,-8.491,-13.130,-4.774,-11.286,-2.162,1.516,4.182,-2.999
2019.07.22 14:06:23.105,20.370,31.770,7.585,3.997,0.697,9.201,12.484,-7.442,-4.692,-12.418,-4.758,-11.009,-13.333,-3.398,-10.894,-2.195,0.684,3.992,-3.755
2019.07.22 14:06:23.109,20.702,30.414,9.520,4.085,3.085,8.188,14.253,-5.781,-2.545,-11.219,-5.050,-11.753,-12.451,-1.048,-9.557,-3.466,0.164,4.022,-4.705
2019.07.22 14:06:23.113,19.889,30.724,10.738,5.758,5.279,8.072,14.640,-4.161,-0.859,-9.070,-5.626,-11.151,-11.151,1.448,-7.725,-5.389,0.270,4.565,-5.515
2019.07.22 14:06:23.117,17.936,33.027,9.656,8.689,5.096,9.129,12.459,-2.411,-0.376,-6.510,-6.499,-9.922,-10.061,3.300,-5.942,-6.954,0.790,5.567,-5.887
2019.07.22 14:06:23.121,15.431,36.498,5.909,12.032,1.722,11.092,7.955,-0.284,-1.064,-4.474,-7.504,-8.842,-9.652,3.930,-4.939,-8.012,1.257,6.712,-5.960
2019.07.22 14:06:23.125,13.137,39.496,0.704,14.806,-3.707,13.167,2.660,2.190,-2.380,-3.724,-8.416,-8.539,-10.186,3.049,-5.443,-9.598,1.337,7.678,-6.288
2019.07.22 14:06:23.129,11.494,40.434,-3.913,16.295,-8.873,14.397,-1.637,4.538,-3.784,-4.395,-9.074,-9.321,-11.695,0.662,-7.815,-12.983,1.004,8.331,-7.390
2019.07.22 14:06:23.133,10.377,38.660,-6.362,16.243,-11.807,14.130,-4.029,6.023,-5.046,-6.014,-9.455,-11.088,-13.965,-2.976,-11.790,-18.379,0.393,8.683,-9.242
2019.07.22 14:06:23.137,9.267,34.739,-6.435,14.788,-12.087,12.287,-4.890,6.044,-6.169,-7.964,-9.665,-13.401,-16.574,-7.436,-16.579,-24.505,-0.460,8.704,-11.178
2019.07.22 14:06:23.141,7.672,29.972,-5.199,12.260,-10.872,9.284,-5.288,4.480,-7.114,-9.986,-9.834,-15.693,-19.022,-12.218,-21.273,-29.478,-1.697,8.210,-12.294
2019.07.22 14:06:23.145,5.464,25.548,-4.025,9.064,-9.878,5.716,-5.948,1.743,-7.674,-12.319,-10.005,-17.546,-20.913,-16.840,-25.273,-32.232,-3.415,7.002,-12.045
2019.07.22 14:06:23.149,2.918,21.957,-3.546,5.703,-10.136,2.099,-6.647,-1.483,-7.669,-15.341,-10.082,-18.851,-22.103,-20.903,-28.462,-33.201,-5.337,5.157,-10.583
2019.07.22 14:06:23.153,0.479,19.072,-3.313,2.840,-11.445,-1.171,-6.493,-4.574,-7.254,-19.018,-9.889,-19.752,-22.705,-24.102,-31.003,-33.651,-6.745,3.204,-8.597
2019.07.22 14:06:23.157,-1.478,16.731,-2.363,1.208,-12.770,-3.677,-4.776,-7.145,-6.971,-22.630,-9.305,-20.439,-22.938,-26.206,-32.973,-34.295,-6.813,1.954,-6.831
2019.07.22 14:06:23.161,-2.690,15.216,-0.150,1.327,-13.113,-4.909,-1.617,-9.003,-7.364,-25.007,-8.359,-20.930,-22.885,-27.042,-34.107,-34.499,-5.179,2.021,-5.666
2019.07.22 14:06:23.165,-2.895,15.172,2.928,3.175,-12.112,-4.420,2.149,-9.983,-8.393,-25.126,-7.208,-21.013,-22.343,-26.489,-33.868,-32.886,-2.289,3.375,-5.057
2019.07.22 14:06:23.169,-1.784,16.985,5.790,6.079,-10.000,-2.133,5.710,-9.893,-9.179,-22.652,-5.991,-20.374,-20.853,-24.503,-31.806,-28.804,0.774,5.272,-4.771
2019.07.22 14:06:23.173,0.825,20.188,7.474,8.978,-7.166,1.459,8.913,-8.621,-8.414,-18.062,-4.716,-18.801,-17.952,-21.150,-27.944,-23.300,2.917,6.672,-4.672
2019.07.22 14:06:23.177,4.669,23.484,7.783,10.918,-3.853,5.433,12.210,-6.333,-5.271,-12.333,-3.268,-16.328,-13.493,-16.648,-22.925,-18.565,3.655,6.860,-4.800
2019.07.22 14:06:23.181,8.899,25.472,7.280,11.479,-0.280,8.866,15.939,-3.544,-0.165,-6.477,-1.577,-13.250,-7.864,-11.423,-17.778,-16.220,3.292,5.849,-5.242
2019.07.22 14:06:23.185,12.352,25.547,6.716,10.853,3.048,11.254,19.627,-0.991,5.241,-1.259,0.210,-10.058,-1.951,-6.129,-13.424,-15.922,2.556,4.270,-5.975
2019.07.22 14:06:23.189,14.133,24.244,6.418,9.570,5.298,12.605,22.008,0.657,8.899,2.806,1.715,-7.337,3.177,-1.591,-10.205,-15.615,2.011,2.886,-6.850
2019.07.22 14:06:23.193,14.104,22.711,6.182,8.097,5.758,13.153,21.857,1.053,9.566,5.332,2.548,-5.631,6.700,1.399,-7.726,-13.371,1.725,2.081,-7.695
2019.07.22 14:06:23.197,12.892,21.744,5.695,6.640,4.484,12.987,18.992,0.261,7.507,6.073,2.599,-5.252,8.388,2.425,-5.117,-9.255,1.425,1.710,-8.406
2019.07.22 14:06:23.201,11.398,21.186,5.057,5.235,2.548,11.972,14.590,-1.308,4.230,5.121,2.184,-6.052,8.671,1.769,-1.582,-5.521,0.937,1.363,-8.911
2019.07.22 14:06:23.205,10.199,20.235,4.859,3.988,1.556,10.081,10.477,-3.037,1.491,3.120,1.865,-7.303,8.403,0.497,3.086,-4.747,0.488,0.783,-9.069
2019.07.22 14:06:23.209,9.343,18.432,5.711,3.208,2.668,7.851,7.902,-4.225,0.275,1.205,2.067,-7.868,8.452,0.146,8.332,-7.363,0.585,0.096,-8.646
2019.07.22 14:06:23.213,8.672,16.427,7.614,3.250,5.842,6.479,6.718,-4.208,0.430,0.571,2.768,-6.692,9.317,2.042,13.120,-10.730,1.578,-0.312,-7.466
2019.07.22 14:06:23.217,8.310,15.776,9.773,4.221,9.858,7.261,5.612,-2.546,1.100,1.853,3.519,-3.414,10.957,6.585,16.501,-10.786,3.291,-0.127,-5.625
2019.07.22 14:06:23.221,8.793,17.749,11.089,5.761,13.126,10.641,3.177,0.732,1.497,4.707,3.785,1.314,12.879,12.885,18.098,-5.179,5.072,0.630,-3.555
2019.07.22 14:06:23.225,10.609,22.027,10.993,7.136,14.669,15.529,-1.006,4.952,1.394,7.883,3.366,6.056,14.387,19.051,18.215,4.554,6.232,1.605,-1.831
2019.07.22 14:06:23.229,13.536,26.390,9.951,7.591,14.584,19.505,-6.083,8.873,1.054,9.800,2.551,9.324,14.877,23.035,17.503,13.642,6.527,2.359,-0.833
