Time,Fp1-CPz,Fp2-CPz,F3-CPz,F4-CPz,F7-CPz,F8-CPz,C3-CPz,C4-CPz,T7-CPz,T8-CPz,P3-CPz,P4-CPz,P7-CPz,P8-CPz,O1-CPz,O2-CPz,Fz-CPz,Cz-CPz,Pz-CPz
2019.07.22 14:03:48.575,-70.724,-51.551,-69.446,-66.981,-43.092,-80.449,37.225,12.439,33.030,-26.452,40.082,4.252,-20.311,43.281,-37.704,23.069,-57.386,-49.582,-43.331
2019.07.22 14:03:48.579,-49.017,-31.744,-56.396,-49.036,-34.239,-67.946,39.274,11.781,28.578,-23.037,32.617,4.624,-14.398,35.351,-31.783,18.001,-43.834,-38.059,-30.936
2019.07.22 14:03:48.583,-14.638,-11.494,-27.727,-17.557,-15.427,-37.288,28.422,4.492,17.482,-13.835,14.840,3.751,-3.383,11.198,-15.403,5.197,-18.617,-14.286,-8.216
2019.07.22 14:03:48.587,13.556,0.748,-0.261,9.280,1.837,-7.224,13.245,-4.094,6.668,-4.687,-2.769,1.863,4.855,-14.141,-0.287,-7.877,3.640,7.476,10.838
2019.07.22 14:03:48.591,21.962,1.663,11.928,17.845,8.148,6.071,3.942,-8.591,2.289,-0.503,-10.741,-0.088,5.522,-26.324,4.357,-13.660,11.623,15.961,16.062
2019.07.22 14:03:48.595,10.874,-5.301,6.594,7.796,2.563,-0.556,5.591,-7.440,5.542,-2.283,-6.800,-1.339,-0.127,-21.478,-2.139,-9.949,4.690,10.203,7.493
2019.07.22 14:03:48.599,-7.246,-12.965,-6.671,-9.103,-7.614,-16.800,15.472,-3.608,12.311,-7.096,3.409,-1.985,-6.491,-7.749,-12.577,-1.264,-7.806,-1.080,-5.986
2019.07.22 14:03:48.603,-17.901,-15.651,-14.816,-18.599,-13.043,-28.036,25.936,-1.807,16.658,-10.753,11.181,-2.860,-8.390,2.007,-18.234,4.763,-14.218,-6.988,-14.106
2019.07.22 14:03:48.607,-14.978,-12.688,-11.194,-14.311,-9.416,-26.414,30.241,-4.620,15.249,-10.977,11.172,-4.724,-5.002,0.217,-15.607,3.090,-9.177,-2.658,-12.704
2019.07.22 14:03:48.611,-3.716,-7.850,0.572,-1.146,0.014,-15.470,26.880,-10.627,9.347,-8.680,4.546,-7.480,-0.015,-10.475,-8.365,-5.273,3.381,8.027,-5.674
2019.07.22 14:03:48.615,5.198,-5.659,10.906,10.052,7.946,-5.524,19.547,-15.795,3.123,-6.638,-3.035,-10.075,1.801,-20.584,-3.475,-14.412,14.387,16.676,-0.541
2019.07.22 14:03:48.619,4.881,-7.730,12.524,11.587,9.210,-4.510,13.391,-16.744,0.008,-6.892,-6.414,-11.176,-1.447,-21.991,-5.137,-18.089,17.084,17.524,-1.862
2019.07.22 14:03:48.623,-2.743,-11.968,5.736,4.360,4.488,-11.941,10.906,-13.159,0.164,-9.079,-4.723,-10.085,-7.495,-14.066,-11.591,-14.121,11.714,11.554,-7.903
2019.07.22 14:03:48.627,-9.667,-14.846,-2.957,-4.112,-1.087,-20.419,10.638,-7.556,0.945,-10.914,-1.228,-7.177,-12.136,-3.160,-17.118,-5.432,4.181,4.724,-12.861
2019.07.22 14:03:48.631,-9.216,-14.531,-6.983,-6.619,-2.743,-22.560,9.312,-2.950,-0.374,-10.259,0.086,-3.591,-12.789,3.340,-17.107,2.573,0.525,2.435,-12.197
2019.07.22 14:03:48.635,-1.604,-12.168,-4.980,-1.984,0.053,-17.063,5.251,-0.552,-4.069,-6.967,-2.013,-0.475,-10.349,2.954,-11.755,5.967,2.118,5.190,-6.363
2019.07.22 14:03:48.639,6.787,-10.462,-1.026,4.893,3.770,-9.022,0.107,0.632,-7.755,-3.025,-5.303,1.605,-7.911,-0.776,-5.434,4.599,5.352,8.885,0.020
2019.07.22 14:03:48.643,9.255,-11.042,-0.259,8.042,4.468,-4.864,-2.453,2.287,-8.478,-0.995,-6.406,2.723,-7.721,-2.322,-2.633,1.417,5.507,8.968,2.383
2019.07.22 14:03:48.647,4.411,-13.008,-4.150,5.715,1.449,-6.750,0.105,4.931,-5.233,-2.100,-3.833,3.217,-9.145,0.669,-4.177,-0.158,1.104,4.532,-0.004
2019.07.22 14:03:48.651,-3.103,-13.863,-9.541,1.446,-2.304,-11.260,6.843,7.446,0.196,-5.449,0.871,3.313,-9.398,5.631,-6.906,1.388,-4.997,-1.153,-3.853
2019.07.22 14:03:48.655,-7.034,-11.874,-11.918,0.363,-3.072,-13.072,13.764,8.260,4.650,-8.887,4.645,3.065,-6.277,7.922,-6.817,5.101,-8.341,-3.805,-5.069
2019.07.22 14:03:48.659,-4.920,-7.706,-9.649,4.346,0.085,-9.984,16.681,6.946,5.950,-10.648,5.559,2.553,-0.395,5.328,-2.702,8.715,-6.809,-1.935,-2.330
2019.07.22 14:03:48.663,0.200,-3.923,-5.353,10.352,4.410,-4.750,14.323,4.702,4.278,-10.466,4.248,2.055,5.097,0.089,2.913,10.312,-2.272,2.078,2.084
2019.07.22 14:03:48.667,2.954,-2.841,-3.354,13.190,5.898,-2.324,9.303,3.287,1.614,-9.416,3.066,1.959,7.044,-3.192,6.185,9.314,1.214,4.354,4.670
2019.07.22 14:03:48.671,0.602,-4.629,-5.718,10.102,2.862,-5.230,6.150,3.444,-0.046,-8.809,3.897,2.503,4.869,-1.665,5.425,6.511,0.871,3.009,3.941
2019.07.22 14:03:48.675,-4.621,-7.289,-10.483,3.098,-2.542,-11.268,7.867,4.300,-0.125,-9.138,6.597,3.618,0.967,3.411,2.496,3.526,-2.752,-0.382,1.623
2019.07.22 14:03:48.679,-7.681,-8.429,-13.545,-2.848,-6.126,-15.497,13.541,4.268,0.524,-9.870,9.324,5.031,-1.371,8.058,1.004,2.165,-6.692,-2.495,0.877
2019.07.22 14:03:48.683,-5.299,-7.257,-12.362,-4.000,-5.175,-14.573,18.848,2.596,0.758,-10.069,10.257,6.529,-0.676,9.248,2.985,3.733,-8.356,-1.395,3.328
2019.07.22 14:03:48.687,1.186,-5.109,-8.104,-0.761,-0.616,-9.557,19.258,0.112,0.255,-9.214,9.108,8.051,1.676,7.441,7.061,8.316,-7.572,1.797,7.587
2019.07.22 14:03:48.691,7.058,-4.128,-4.418,3.049,3.944,-4.827,13.788,-1.529,-0.371,-7.540,7.163,9.497,2.904,5.761,9.639,14.312,-6.239,4.135,10.504
2019.07.22 14:03:48.695,8.311,-5.348,-4.059,3.676,5.335,-4.199,6.676,-1.383,-0.405,-5.757,5.984,10.433,1.386,6.729,8.015,18.793,-6.174,3.717,9.899
2019.07.22 14:03:48.699,4.933,-7.830,-6.491,0.511,3.365,-7.739,5.584,-0.107,0.109,-4.485,6.053,10.088,-1.950,9.673,2.660,18.917,-7.291,1.506,6.311
2019.07.22 14:03:48.703,0.619,-9.534,-8.542,-3.762,0.648,-11.935,17.210,0.634,0.326,-3.887,6.519,7.808,-4.547,11.226,-3.242,13.752,-7.788,0.443,2.321
2019.07.22 14:03:48.707,-0.642,-9.107,-7.419,-5.826,0.050,-12.884,42.939,-0.267,-0.595,-3.697,6.156,3.719,-4.540,8.468,-6.467,5.200,-6.032,2.705,0.229
2019.07.22 14:03:48.711,1.982,-7.026,-3.304,-4.654,2.095,-9.585,77.285,-2.232,-2.616,-3.477,4.554,-0.981,-2.374,1.851,-6.248,-2.921,-2.311,7.602,0.246
2019.07.22 14:03:48.715,5.627,-5.171,0.797,-2.178,4.580,-4.561,110.258,-3.362,-4.685,-2.854,2.476,-4.475,-0.287,-4.772,-4.500,-7.241,1.204,11.998,0.746
2019.07.22 14:03:48.719,6.420,-5.252,1.747,-1.303,4.663,-1.482,132.364,-2.001,-5.471,-1.617,1.144,-5.336,-0.198,-7.089,-3.772,-7.005,2.277,12.890,0.148
2019.07.22 14:03:48.723,2.944,-7.433,-0.904,-3.210,1.522,-2.038,139.324,1.863,-4.312,0.254,1.204,-3.393,-1.915,-3.737,-4.881,-4.321,0.550,9.866,-1.436
2019.07.22 14:03:48.727,-2.489,-10.211,-4.480,-6.334,-2.730,-4.747,133.743,6.571,-1.591,2.559,2.302,0.195,-3.288,2.741,-6.311,-2.243,-2.095,5.345,-2.335
2019.07.22 14:03:48.731,-5.673,-11.551,-5.433,-7.775,-4.598,-6.488,122.911,10.140,1.710,4.894,3.569,3.766,-2.152,8.109,-5.785,-2.171,-3.048,2.469,-1.029
2019.07.22 14:03:48.735,-3.770,-10.267,-2.303,-5.762,-1.898,-5.193,114.298,11.780,4.804,6.786,4.473,6.254,1.686,9.839,-2.457,-2.736,-1.041,2.544,2.220
2019.07.22 14:03:48.739,2.726,-6.635,3.168,-1.017,4.656,-1.329,111.635,12.264,7.520,7.947,5.217,7.754,6.183,8.790,2.271,-1.148,2.966,4.186,5.393
2019.07.22 14:03:48.743,10.710,-1.952,7.623,4.001,12.115,2.889,113.859,12.889,10.057,8.450,6.381,9.127,8.750,7.918,5.975,4.103,6.709,4.795,6.392
2019.07.22 14:03:48.747,16.923,2.394,8.887,7.081,17.490,5.526,117.147,14.022,12.408,8.639,8.206,11.022,8.398,9.344,7.255,11.500,8.440,2.909,4.851
2019.07.22 14:03:48.751,19.995,5.570,7.579,7.710,19.614,6.292,118.221,14.627,14.065,8.781,10.258,13.148,6.452,12.451,6.732,17.305,8.099,-0.596,2.429
2019.07.22 14:03:48.755,20.575,7.345,6.272,6.890,19.339,6.174,116.516,13.207,14.321,8.756,11.754,14.390,5.239,14.572,6.159,18.359,6.978,-3.413,1.340
2019.07.22 14:03:48.759,19.953,7.815,7.118,5.824,18.243,6.034,113.925,9.351,12.880,8.089,12.229,13.701,5.937,13.477,6.568,14.558,6.408,-3.850,2.461
2019.07.22 14:03:48.763,18.728,7.226,10.042,4.850,17.203,5.677,112.736,4.443,10.214,6.353,11.915,11.002,7.519,9.331,7.233,8.904,6.699,-2.188,4.702
2019.07.22 14:03:48.767,16.694,6.008,12.967,3.540,16.007,4.259,113.645,0.820,7.322,3.632,11.496,7.367,7.719,4.422,6.423,5.025,7.164,-0.248,6.144
2019.07.22 14:03:48.771,13.732,4.752,13.640,1.605,14.068,1.442,115.347,0.013,5.069,0.597,11.520,4.304,5.162,1.053,3.240,4.231,6.988,0.269,5.847
2019.07.22 14:03:48.775,10.500,3.907,11.373,-0.485,11.303,-2.001,115.813,1.531,3.656,-1.927,11.992,2.718,0.770,-0.393,-1.207,4.614,5.993,-0.869,4.660
2019.07.22 14:03:48.779,8.080,3.343,7.258,-1.875,8.274,-4.835,113.981,3.230,2.616,-3.584,12.480,2.357,-2.850,-1.479,-4.421,2.969,4.624,-2.508,4.311
2019.07.22 14:03:48.783,6.922,2.243,2.919,-2.300,5.541,-6.602,110.413,2.981,1.276,-4.764,12.541,2.160,-3.538,-3.919,-4.495,-2.110,3.317,-3.369,5.670
2019.07.22 14:03:48.787,6.243,-0.394,-0.890,-2.596,3.020,-8.168,106.511,0.265,-0.730,-6.265,12.020,1.200,-1.430,-7.738,-1.747,-8.654,1.982,-3.198,7.808
2019.07.22 14:03:48.791,4.617,-4.919,-4.551,-4.120,0.051,-10.936,103.148,-3.552,-3.289,-8.604,10.977,-0.548,1.032,-11.133,1.398,-12.711,0.147,-2.792,8.741
2019.07.22 14:03:48.795,1.296,-10.555,-8.659,-7.564,-3.845,-15.421,99.984,-6.435,-6.029,-11.560,9.412,-2.203,0.977,-12.164,2.188,-11.627,-2.430,-2.989,7.196
2019.07.22 14:03:48.799,-3.005,-15.758,-12.953,-12.253,-8.305,-20.570,96.030,-7.280,-8.653,-14.359,7.160,-2.687,-2.695,-10.685,-0.470,-6.443,-5.357,-3.695,3.791
2019.07.22 14:03:48.803,-6.653,-19.222,-16.206,-16.637,-12.254,-24.552,90.841,-6.594,-11.082,-16.327,4.126,-1.569,-8.554,-8.689,-5.397,-1.348,-7.854,-3.907,0.568
2019.07.22 14:03:48.807,-8.542,-20.730,-17.186,-19.529,-14.739,-26.321,85.190,-5.759,-13.359,-17.418,0.630,0.623,-13.839,-8.660,-10.243,-0.478,-9.404,-2.667,-0.734
2019.07.22 14:03:48.811,-9.066,-21.104,-15.733,-20.936,-15.692,-26.476,80.566,-5.637,-15.481,-18.128,-2.561,2.826,-16.527,-11.347,-13.231,-4.642,-10.160,-0.026,-0.101
2019.07.22 14:03:48.815,-9.656,-21.284,-12.941,-21.723,-15.880,-26.567,77.955,-5.770,-17.361,-18.873,-4.624,4.227,-16.570,-14.917,-14.089,-10.587,-10.673,2.909,0.884
2019.07.22 14:03:48.819,-11.240,-21.330,-10.270,-22.462,-16.086,-27.437,77.016,-4.827,-18.910,-19.404,-5.200,4.799,-15.408,-16.260,-13.581,-13.420,-11.232,4.863,0.579
2019.07.22 14:03:48.823,-13.048,-20.241,-8.459,-22.640,-16.292,-28.195,76.400,-1.874,-20.094,-18.870,-4.573,5.214,-14.391,-13.392,-12.333,-10.267,-11.475,5.355,-1.140
2019.07.22 14:03:48.827,-12.964,-16.810,-7.204,-21.060,-15.668,-26.872,74.947,2.667,-20.841,-16.531,-3.307,6.265,-13.562,-6.965,-10.183,-2.319,-10.707,4.882,-2.689
2019.07.22 14:03:48.831,-9.246,-10.795,-5.812,-17.126,-13.391,-22.283,72.690,7.183,-20.884,-12.521,-1.678,8.265,-11.820,0.290,-6.612,6.200,-8.618,4.230,-2.143
2019.07.22 14:03:48.835,-2.169,-3.391,-4.062,-11.768,-9.530,-15.421,70.791,9.988,-19.770,-7.975,0.559,10.833,-8.171,5.607,-1.707,11.161,-5.677,3.666,1.051
2019.07.22 14:03:48.839,5.870,3.457,-2.398,-7.029,-5.133,-9.033,70.450,10.431,-17.133,-4.320,3.817,13.163,-2.856,7.992,3.416,11.250,-2.765,2.821,5.485
2019.07.22 14:03:48.843,11.977,8.344,-1.255,-4.533,-1.405,-5.632,71.793,9.128,-13.078,-2.310,8.037,14.494,2.671,8.397,7.255,8.321,-0.360,1.330,8.844
2019.07.22 14:03:48.847,14.779,11.231,-0.293,-4.166,1.282,-5.578,73.684,7.216,-8.340,-1.608,12.391,14.469,6.845,8.365,9.079,5.457,1.913,-0.495,9.671
2019.07.22 14:03:48.851,15.204,13.135,1.582,-4.186,3.605,-6.920,74.653,5.366,-4.022,-1.257,15.676,13.178,9.149,8.495,9.505,4.556,4.855,-1.723,8.363
2019.07.22 14:03:48.855,15.413,14.986,5.243,-2.781,6.489,-7.127,74.099,3.407,-1.019,-0.623,17.130,10.992,10.312,8.093,9.902,5.339,8.700,-1.640,6.637
2019.07.22 14:03:48.859,16.871,16.697,10.264,0.275,10.012,-5.219,72.740,0.808,0.469,0.059,16.993,8.365,11.434,6.162,11.113,6.261,12.506,-0.559,6.016
2019.07.22 14:03:48.863,19.200,17.265,14.811,3.312,13.043,-2.476,71.951,-2.498,0.977,0.036,16.305,5.734,12.900,2.711,12.657,6.181,14.600,0.257,6.682
2019.07.22 14:03:48.867,20.720,15.822,16.786,4.157,14.034,-1.155,72.574,-5.745,1.351,-1.041,16.090,3.491,14.086,-0.890,13.168,5.258,13.844,-0.382,7.585
2019.07.22 14:03:48.871,20.095,12.666,15.387,2.061,12.361,-2.402,74.231,-7.763,2.176,-2.515,16.605,1.958,14.084,-2.819,11.725,4.446,10.678,-2.467,7.588
2019.07.22 14:03:48.875,17.604,9.353,11.786,-1.521,9.067,-5.209,75.642,-7.845,3.456,-3.085,17.274,1.300,12.735,-2.195,8.875,4.350,6.995,-4.635,6.521
2019.07.22 14:03:48.879,14.969,7.697,8.335,-3.975,6.332,-7.297,75.610,-6.324,4.736,-1.906,17.314,1.433,10.978,0.262,6.389,4.623,4.865,-5.197,5.237
2019.07.22 14:03:48.883,13.979,8.501,6.905,-3.556,6.045,-7.073,73.785,-4.368,5.499,0.514,16.464,2.028,10.150,2.785,5.904,4.438,5.115,-3.537,4.720
2019.07.22 14:03:48.887,15.118,11.058,7.693,-0.674,8.574,-4.907,70.648,-3.179,5.523,2.489,15.157,2.643,10.853,3.826,7.583,3.447,6.895,-0.644,5.133
2019.07.22 14:03:48.891,17.317,13.774,9.370,2.575,12.650,-2.672,66.890,-3.214,4.961,2.396,14.009,2.922,12.402,2.971,9.946,2.206,8.536,1.699,5.690
2019.07.22 14:03:48.895,18.886,15.338,10.315,4.156,16.338,-2.058,62.874,-3.992,4.175,-0.004,13.155,2.750,13.358,0.914,11.054,1.632,8.901,2.392,5.413
2019.07.22 14:03:48.899,18.711,15.437,9.805,3.575,18.253,-3.251,58.653,-4.575,3.496,-3.295,12.088,2.267,12.704,-1.326,10.042,2.080,8.056,1.882,4.034
2019.07.22 14:03:48.903,16.754,14.510,8.196,1.873,18.111,-5.122,54.405,-4.283,3.063,-5.497,10.196,1.749,10.662,-3.142,7.750,2.975,6.787,1.652,2.205
2019.07.22 14:03:48.907,13.642,12.934,6.155,0.319,16.399,-6.603,50.687,-3.113,2.782,-5.677,7.497,1.416,8.467,-4.505,5.935,3.420,5.537,2.820,0.869
2019.07.22 14:03:48.911,9.974,10.513,3.828,-0.870,13.700,-7.814,48.132,-1.626,2.383,-4.732,4.870,1.299,7.322,-5.605,5.791,3.177,3.868,5.105,0.424
2019.07.22 14:03:48.915,6.086,6.821,0.825,-2.542,10.375,-9.787,46.853,-0.453,1.554,-4.631,3.503,1.246,7.472,-6.458,7.037,3.013,1.007,7.071,0.460
2019.07.22 14:03:48.919,2.365,2.062,-2.972,-5.369,6.806,-13.023,46.203,0.169,0.171,-6.657,3.999,1.058,8.178,-6.863,8.316,3.999,-3.032,7.436,0.279
2019.07.22 14:03:48.923,-0.391,-2.430,-6.647,-8.588,3.780,-16.329,45.273,0.529,-1.446,-10.083,5.933,0.689,8.587,-6.638,8.510,6.371,-6.887,6.229,-0.325
2019.07.22 14:03:48.927,-1.144,-4.685,-8.416,-10.047,2.446,-17.222,43.778,1.202,-2.437,-12.452,8.262,0.353,8.690,-5.820,7.816,9.070,-8.514,4.758,-0.795
2019.07.22 14:03:48.931,0.702,-3.343,-6.774,-7.720,3.731,-13.779,42.496,2.619,-1.672,-11.350,10.246,0.457,9.474,-4.605,7.647,10.511,-6.671,4.397,-0.311
2019.07.22 14:03:48.935,4.736,1.311,-1.743,-1.480,7.671,-6.422,42.723,4.720,1.615,-6.350,12.047,1.337,12.099,-3.187,9.438,9.987,-1.987,5.289,1.418
2019.07.22 14:03:48.939,9.669,7.388,4.869,6.421,13.245,1.971,45.070,6.870,7.168,0.389,14.444,2.954,16.747,-1.756,13.348,8.431,3.326,6.140,3.788
2019.07.22 14:03:48.943,14.101,12.540,10.484,12.686,18.897,7.872,48.624,8.110,13.525,5.410,17.911,4.780,22.139,-0.691,17.912,7.736,6.959,5.321,5.728
2019.07.22 14:03:48.947,17.271,15.379,13.323,15.152,23.317,9.479,51.310,7.627,18.588,6.212,21.880,5.994,26.166,-0.662,20.951,9.126,8.031,2.320,6.514
2019.07.22 14:03:48.951,19.190,16.147,13.356,14.138,25.935,7.786,51.327,5.226,20.737,2.854,24.911,5.944,27.223,-2.340,21.023,11.955,7.479,-1.711,6.271
2019.07.22 14:03:48.955,20.145,16.239,12.018,11.964,26.856,5.564,48.554,1.524,19.782,-2.213,25.711,4.584,25.282,-5.796,18.361,14.086,7.109,-4.803,5.735
2019.07.22 14:03:48.959,20.219,17.079,11.048,11.129,26.510,5.185,44.757,-2.275,17.081,-5.870,24.161,2.562,21.913,-10.093,14.671,13.629,8.164,-5.660,5.532
2019.07.22 14:03:48.963,19.359,19.216,11.406,12.621,25.424,7.051,42.310,-4.964,14.688,-6.301,21.496,0.854,19.283,-13.587,11.995,10.623,10.585,-4.533,5.634
2019.07.22 14:03:48.967,17.878,22.206,12.991,15.576,24.231,9.770,42.394,-5.922,14.070,-3.856,19.408,0.145,18.831,-14.879,11.495,7.174,13.392,-2.784,5.465
2019.07.22 14:03:48.971,16.712,25.096,15.076,18.286,23.649,11.645,44.064,-5.344,15.251,-0.399,18.793,0.398,20.499,-13.769,12.889,5.834,15.636,-1.609,4.494
2019.07.22 14:03:48.975,16.876,26.974,16.892,19.539,24.141,12.050,44.940,-3.960,16.940,2.154,19.135,0.918,22.936,-11.412,14.798,7.474,16.995,-1.086,2.741
2019.07.22 14:03:48.979,18.438,27.161,17.855,19.185,25.396,11.525,42.970,-2.464,17.511,2.928,18.994,0.881,24.413,-9.507,15.621,10.408,17.570,-0.334,0.748
2019.07.22 14:03:48.983,19.990,25.189,17.493,17.726,26.172,10.762,37.926,-1.111,16.081,2.146,17.202,-0.067,23.793,-9.126,14.385,11.540,17.327,1.451,-0.930
2019.07.22 14:03:48.987,19.387,20.909,15.480,15.593,24.915,9.613,31.516,0.226,12.972,0.386,13.765,-1.598,21.006,-10.144,11.130,8.659,15.940,4.106,-2.191
2019.07.22 14:03:48.991,15.439,14.851,11.973,12.920,20.920,7.170,26.140,1.623,9.338,-2.140,9.811,-3.051,16.875,-11.709,6.774,2.079,13.303,6.608,-3.377
2019.07.22 14:03:48.995,9.179,8.470,7.920,9.933,15.156,2.812,23.307,2.744,6.339,-5.647,6.689,-4.038,12.543,-13.289,2.600,-5.616,10.164,8.029,-4.836
2019.07.22 14:03:48.999,3.481,3.786,4.830,7.333,9.908,-2.837,22.869,2.942,4.515,-10.239,4.996,-4.801,8.896,-15.280,-0.360,-11.435,8.048,8.434,-6.490
2019.07.22 14:03:49.003,1.019,2.346,3.867,6.064,7.282,-8.052,23.458,1.804,3.713,-15.348,4.303,-5.994,6.271,-18.565,-1.772,-13.913,8.234,8.828,-7.856
2019.07.22 14:03:49.007,2.110,4.134,4.870,6.497,7.611,-11.205,23.552,-0.313,3.448,-19.745,3.689,-8.035,4.490,-23.356,-2.093,-13.639,10.546,10.176,-8.476
2019.07.22 14:03:49.011,4.244,7.340,6.186,7.830,9.084,-11.972,22.302,-2.298,3.304,-22.162,2.545,-10.555,3.130,-28.407,-2.238,-12.184,13.083,12.394,-8.363
2019.07.22 14:03:49.015,3.902,9.373,5.694,8.436,9.036,-11.433,19.657,-2.951,3.067,-22.052,0.963,-12.458,1.834,-31.432,-3.007,-10.562,13.393,14.245,-8.008
2019.07.22 14:03:49.019,-0.647,8.544,2.401,7.083,6.034,-10.983,16.033,-1.851,2.638,-19.908,-0.524,-12.618,0.504,-30.600,-4.591,-8.620,10.325,14.319,-7.962
2019.07.22 14:03:49.023,-7.796,5.236,-2.600,4.073,1.133,-11.038,12.046,0.263,1.960,-16.936,-1.502,-10.756,-0.696,-25.963,-6.504,-5.791,5.102,12.245,-8.365
2019.07.22 14:03:49.027,-13.618,1.644,-6.690,1.232,-2.752,-10.743,8.530,1.933,1.091,-14.361,-1.973,-7.811,-1.517,-19.650,-7.982,-2.326,0.641,9.081,-8.862
2019.07.22 14:03:49.031,-14.728,0.213,-7.478,0.614,-2.944,-8.939,6.559,1.966,0.342,-12.876,-2.159,-5.480,-1.829,-14.574,-8.559,0.330,-0.489,6.528,-8.964
2019.07.22 14:03:49.035,-10.727,1.935,-4.481,2.871,1.018,-5.493,7.106,0.211,0.224,-12.515,-2.077,-5.182,-1.715,-12.566,-8.372,0.538,2.088,5.609,-8.482
2019.07.22 14:03:49.039,-4.304,5.746,0.558,6.645,7.072,-1.734,10.373,-2.425,1.136,-12.866,-1.373,-7.139,-1.380,-13.319,-7.948,-1.941,6.349,5.938,-7.620
2019.07.22 14:03:49.043,1.034,9.460,4.962,9.534,12.186,0.494,15.337,-4.680,3.010,-13.355,0.374,-10.200,-0.955,-14.859,-7.661,-5.253,9.466,6.170,-6.673
2019.07.22 14:03:49.047,3.677,11.452,7.011,9.916,14.553,0.367,20.072,-5.761,5.239,-13.377,3.149,-12.524,-0.378,-15.090,-7.332,-6.471,9.929,5.205,-5.662
2019.07.22 14:03:49.051,4.891,11.784,7.000,8.170,14.707,-1.123,22.819,-5.674,7.040,-12.345,6.284,-12.672,0.547,-13.190,-6.334,-3.714,8.535,3.109,-4.303
2019.07.22 14:03:49.055,7.337,11.962,6.718,6.312,14.794,-1.851,23.066,-4.903,8.010,-9.799,8.784,-10.386,1.932,-9.882,-4.143,2.300,7.532,1.000,-2.375
2019.07.22 14:03:49.059,12.512,13.588,7.902,6.343,16.712,-0.178,21.791,-3.849,8.449,-5.671,9.972,-6.631,3.646,-6.576,-0.856,8.592,8.696,0.064,-0.125
2019.07.22 14:03:49.063,19.307,17.034,10.908,8.665,20.654,3.804,20.612,-2.570,9.141,-0.514,9.913,-2.931,5.362,-4.235,2.753,12.040,11.939,0.594,1.746
2019.07.22 14:03:49.067,24.835,21.151,14.598,11.808,25.118,8.401,20.504,-1.002,10.735,4.543,9.273,-0.510,6.784,-2.875,5.696,11.669,15.503,1.853,2.556
2019.07.22 14:03:49.071,26.731,24.133,17.363,13.635,28.193,11.618,21.120,0.661,13.182,8.221,8.727,0.250,7.841,-1.962,7.375,9.310,17.454,2.818,2.201
2019.07.22 14:03:49.075,24.930,24.802,18.337,12.995,28.924,12.523,21.256,1.896,15.676,9.677,8.417,-0.225,8.650,-1.168,7.806,8.052,17.187,3.081,1.264
2019.07.22 14:03:49.079,21.498,23.317,17.839,10.528,27.687,11.608,20.030,2.230,17.133,8.901,7.901,-1.159,9.265,-0.753,7.356,9.652,15.747,3.130,0.537
2019.07.22 14:03:49.083,18.807,20.883,16.852,8.053,25.486,10.023,17.741,1.703,16.865,6.631,6.614,-1.949,9.442,-1.293,6.278,12.954,14.843,3.802,0.354
2019.07.22 14:03:49.087,17.736,18.831,16.126,7.143,22.996,8.520,15.678,0.928,14.967,3.856,4.442,-2.439,8.716,-3.098,4.531,14.609,15.490,5.474,0.331
2019.07.22 14:03:49.091,17.362,17.820,15.692,8.062,20.247,7.022,15.060,0.599,12.180,1.267,1.929,-2.845,6.779,-5.863,2.049,11.658,17.361,7.706,-0.242
2019.07.22 14:03:49.095,16.221,17.660,15.078,9.787,17.101,5.076,16.031,0.860,9.402,-1.001,-0.045,-3.475,3.896,-8.850,-0.852,4.018,19.233,9.628,-1.680
2019.07.22 14:03:49.099,13.807,17.680,13.860,10.924,13.865,2.562,17.578,1.129,7.216,-3.197,-0.847,-4.459,0.945,-11.342,-3.404,-5.046,19.953,10.663,-3.532
2019.07.22 14:03:49.103,10.904,17.175,11.961,10.661,11.284,-0.102,18.380,0.624,5.720,-5.560,-0.497,-5.652,-1.039,-12.980,-4.843,-10.933,19.051,10.915,-4.905
2019.07.22 14:03:49.107,8.575,15.627,9.503,9.063,9.856,-2.428,17.792,-0.833,4.652,-8.041,0.375,-6.752,-1.531,-13.761,-5.047,-10.807,16.638,10.921,-5.232
2019.07.22 14:03:49.111,6.904,12.711,6.505,6.677,9.160,-4.443,16.114,-2.467,3.631,-10.320,0.952,-7.510,-0.887,-13.864,-4.772,-5.557,12.941,11.051,-4.798
2019.07.22 14:03:49.115,4.824,8.370,2.849,4.020,7.957,-6.683,13.976,-3.038,2.333,-12.061,0.689,-7.878,-0.095,-13.557,-5.174,0.792,8.108,11.141,-4.531
2019.07.22 14:03:49.119,1.263,3.046,-1.376,1.457,5.148,-9.497,11.529,-1.835,0.562,-13.139,-0.457,-8.001,-0.086,-13.245,-6.923,3.818,2.516,10.703,-5.193
2019.07.22 14:03:49.123,-3.456,-2.144,-5.536,-0.564,0.806,-12.316,8.264,0.683,-1.693,-13.635,-2.112,-8.027,-1.112,-13.436,-9.620,1.638,-2.818,9.473,-6.664
2019.07.22 14:03:49.127,-7.385,-5.641,-8.549,-1.337,-3.625,-13.682,3.691,3.167,-4.195,-13.644,-3.732,-7.901,-2.686,-14.445,-12.022,-3.978,-6.337,7.776,-7.964
2019.07.22 14:03:49.131,-8.246,-6.135,-9.468,-0.182,-6.252,-12.213,-1.796,4.423,-6.460,-13.091,-4.846,-7.319,-4.071,-15.990,-12.937,-9.032,-6.693,6.336,-8.007
2019.07.22 14:03:49.135,-5.244,-3.355,-8.118,2.972,-6.041,-7.790,-6.753,4.325,-7.896,-11.800,-5.188,-5.930,-4.889,-17.101,-12.066,-10.144,-3.636,5.711,-6.490
2019.07.22 14:03:49.139,0.189,1.637,-5.227,7.225,-3.478,-1.950,-9.510,3.828,-8.070,-9.771,-4.717,-3.691,-5.303,-16.632,-10.119,-6.797,1.702,5.850,-4.170
2019.07.22 14:03:49.143,5.411,6.935,-1.916,11.034,-0.059,2.938,-9.371,4.024,-6.933,-7.441,-3.578,-1.102,-5.655,-14.148,-8.122,-1.457,7.451,6.154,-2.290
2019.07.22 14:03:49.147,8.523,10.794,1.034,13.078,2.892,5.151,-7.137,5.086,-4.830,-5.622,-1.996,0.922,-5.917,-10.488,-6.503,2.379,12.107,5.990,-1.641
2019.07.22 14:03:49.151,9.631,12.466,3.539,13.056,5.048,4.631,-4.463,6.013,-2.287,-5.058,-0.170,1.556,-5.519,-7.426,-4.763,2.713,15.258,5.177,-2.014
2019.07.22 14:03:49.155,10.394,12.353,5.923,11.774,6.905,2.815,-2.580,5.467,0.253,-5.854,1.790,0.646,-3.789,-6.524,-1.992,0.331,17.413,4.084,-2.457
2019.07.22 14:03:49.159,12.338,11.446,8.322,10.472,8.890,1.483,-1.457,2.993,2.541,-7.230,3.807,-1.076,-0.667,-7.983,2.169,-1.982,19.202,3.278,-2.082
2019.07.22 14:03:49.163,15.441,10.570,10.357,9.922,10.671,1.573,-0.145,-0.430,4.419,-7.873,5.683,-2.369,2.932,-10.438,6.938,-1.634,20.681,3.102,-0.748
2019.07.22 14:03:49.167,18.211,10.017,11.406,10.021,11.351,2.832,2.033,-3.043,5.671,-6.755,6.983,-2.297,5.508,-11.929,10.684,1.822,21.357,3.515,0.905
2019.07.22 14:03:49.171,19.109,9.736,11.200,10.125,10.388,4.379,4.541,-3.643,6.020,-3.901,7.124,-0.905,5.905,-11.360,11.896,6.350,20.803,4.283,1.993
2019.07.22 14:03:49.175,17.971,9.758,10.161,9.764,8.325,5.547,5.841,-2.508,5.310,-0.529,5.690,0.745,4.087,-9.299,10.107,8.907,19.245,5.245,2.018
2019.07.22 14:03:49.179,16.149,10.381,9.117,9.076,6.592,6.233,4.641,-1.129,3.706,1.613,2.787,1.277,1.161,-7.454,6.142,7.622,17.512,6.391,1.083
2019.07.22 14:03:49.183,15.253,11.892,8.602,8.592,6.436,6.582,1.113,-0.974,1.660,1.341,-0.852,-0.022,-1.409,-7.271,1.551,3.103,16.396,7.703,-0.370
2019.07.22 14:03:49.187,15.647,14.086,8.348,8.598,7.868,6.458,-3.033,-2.337,-0.367,-1.186,-4.181,-2.658,-2.795,-8.777,-2.295,-2.039,15.991,8.986,-1.968
2019.07.22 14:03:49.191,16.046,16.065,7.439,8.686,9.531,5.312,-5.769,-4.210,-2.223,-4.567,-6.403,-5.262,-3.290,-10.654,-4.829,-5.093,15.649,9.926,-3.585
2019.07.22 14:03:49.195,14.571,16.580,5.028,7.923,9.632,2.608,-6.320,-5.248,-4.116,-7.111,-7.414,-6.583,-3.934,-11.468,-6.327,-5.210,14.581,10.342,-5.211
2019.07.22 14:03:49.199,10.318,14.742,1.028,5.567,7.205,-1.579,-5.773,-4.943,-6.320,-7.971,-7.777,-6.411,-5.627,-11.016,-7.503,-4.034,12.585,10.385,-6.741
2019.07.22 14:03:49.203,4.102,10.615,-3.754,1.752,2.685,-6.362,-6.208,-3.969,-8.785,-7.657,-8.241,-5.731,-8.422,-10.596,-8.998,-4.512,10.235,10.440,-7.961
2019.07.22 14:03:49.207,-2.205,5.283,-8.149,-2.386,-2.559,-10.448,-9.021,-3.424,-11.010,-7.513,-9.157,-5.929,-11.489,-11.925,-11.066,-8.654,8.379,10.768,-8.724
2019.07.22 14:03:49.211,-7.074,0.353,-11.340,-5.272,-7.242,-12.791,-13.781,-3.650,-12.333,-8.554,-10.227,-7.652,-13.718,-15.516,-13.493,-15.775,7.407,11.210,-9.093
2019.07.22 14:03:49.215,-10.168,-2.744,-13.208,-5.737,-10.812,-12.990,-18.503,-3.727,-12.412,-10.507,-10.776,-10.153,-14.430,-19.876,-15.667,-22.474,6.969,11.241,-9.246
2019.07.22 14:03:49.219,-11.990,-3.257,-14.112,-3.589,-13.279,-11.195,-21.063,-2.119,-11.437,-11.823,-10.308,-11.687,-13.670,-22.254,-16.795,-24.527,6.377,10.378,-9.216
2019.07.22 14:03:49.223,-12.774,-1.219,-14.370,0.406,-14.530,-7.764,-20.610,2.039,-9.868,-10.684,-8.896,-10.696,-11.936,-20.486,-16.234,-19.591,5.346,8.619,-8.766
2019.07.22 14:03:49.227,-11.800,2.775,-13.914,5.030,-13.939,-3.059,-17.922,8.096,-7.877,-6.301,-7.122,-6.962,-9.662,-14.585,-13.871,-8.990,4.390,6.534,-7.598
2019.07.22 14:03:49.231,-7.855,7.860,-12.344,9.197,-10.690,2.441,-14.550,14.201,-5.033,0.447,-5.638,-1.877,-6.903,-6.899,-10.318,2.640,4.496,4.919,-5.755
2019.07.22 14:03:49.235,-0.477,13.136,-9.259,12.283,-4.552,7.953,-11.599,18.508,-0.586,7.502,-4.722,2.398,-3.441,-0.683,-6.683,9.848,6.355,4.283,-3.832
2019.07.22 14:03:49.239,9.164,17.825,-4.527,14.118,3.659,12.488,-9.120,20.303,5.811,12.883,-4.173,4.285,0.837,1.907,-3.962,9.574,9.776,4.581,-2.690
2019.07.22 14:03:49.243,18.615,21.411,1.646,14.808,12.398,15.288,-6.490,20.174,13.495,15.811,-3.568,3.749,5.638,1.018,-2.405,3.093,13.768,5.367,-2.820
2019.07.22 14:03:49.247,25.538,23.749,8.784,14.592,20.248,16.295,-3.284,19.218,20.872,16.934,-2.621,2.178,10.287,-1.246,-1.359,-4.629,17.201,6.186,-3.883
2019.07.22 14:03:49.251,29.054,25.067,16.135,13.813,26.559,16.187,0.192,18.042,26.202,17.557,-1.349,1.326,14.016,-2.398,0.209,-7.936,19.467,6.866,-4.871
2019.07.22 14:03:49.255,29.971,25.802,22.622,12.912,31.343,15.889,3.103,16.436,28.558,18.537,0.055,2.078,16.305,-1.217,2.851,-4.046,20.655,7.472,-4.844
2019.07.22 14:03:49.259,29.820,26.340,26.940,12.347,34.595,15.906,4.732,13.884,28.240,19.657,1.452,3.885,17.037,1.587,6.085,5.095,21.163,8.040,-3.690
2019.07.22 14:03:49.263,29.536,26.803,27.975,12.392,35.793,16.012,4.936,10.336,26.384,19.888,2.847,5.232,16.458,4.023,8.623,13.969,21.167,8.386,-2.243
2019.07.22 14:03:49.267,28.909,27.017,25.401,12.930,34.172,15.542,4.041,6.455,24.102,18.247,4.278,4.761,15.019,4.233,9.250,17.023,20.440,8.184,-1.635
2019.07.22 14:03:49.271,27.111,26.669,20.052,13.398,29.594,13.999,2.410,3.113,21.840,14.566,5.655,2.237,13.239,1.691,7.681,12.315,18.633,7.253,-2.367
2019.07.22 14:03:49.275,23.736,25.506,13.679,12.988,23.213,11.480,0.190,0.645,19.402,9.651,6.746,-1.286,11.611,-2.516,4.761,2.830,15.745,5.769,-3.865
2019.07.22 14:03:49.279,19.380,23.479,8.136,11.064,17.163,8.597,-2.494,-1.378,16.484,4.832,7.363,-4.176,10.513,-6.423,1.858,-5.500,12.329,4.225,-4.916
2019.07.22 14:03:49.283,15.310,20.763,4.494,7.598,13.332,6.041,-5.166,-3.612,13.183,1.302,7.556,-5.272,10.102,-8.386,-0.024,-7.784,9.256,3.159,-4.647
2019.07.22 14:03:49.287,12.592,17.726,2.662,3.338,12.124,4.210,-6.943,-6.110,10.018,-0.283,7.606,-4.567,10.250,-8.013,-0.721,-3.449,7.225,2.894,-3.234
2019.07.22 14:03:49.291,11.454,14.872,1.754,-0.448,12.216,3.172,-7.039,-8.041,7.521,0.159,7.778,-3.083,10.590,-6.291,-0.696,3.478,6.374,3.437,-1.777
2019.07.22 14:03:49.295,11.346,12.737,0.846,-2.607,11.592,2.848,-5.460,-8.289,5.825,2.276,8.052,-2.103,10.684,-4.914,-0.441,7.274,6.247,4.562,-1.422
2019.07.22 14:03:49.299,11.495,11.708,-0.443,-2.765,9.094,3.124,-3.273,-6.478,4.679,5.393,8.080,-2.299,10.223,-5.219,-0.099,4.565,6.065,5.911,-2.455
2019.07.22 14:03:49.303,11.375,11.791,-1.924,-1.600,5.293,3.730,-2.090,-3.488,3.832,8.560,7.459,-3.342,9.154,-7.394,0.413,-3.372,5.107,7.034,-4.092
2019.07.22 14:03:49.307,10.760,12.524,-3.227,-0.453,2.009,4.102,-3.045,-0.921,3.379,10.741,6.094,-4.195,7.659,-10.410,1.011,-11.645,3.008,7.426,-5.112
2019.07.22 14:03:49.311,9.529,13.154,-4.166,-0.459,0.894,3.559,-6.043,0.136,3.677,11.225,4.336,-3.856,6.059,-12.700,1.300,-15.284,-0.090,6.681,-4.803
2019.07.22 14:03:49.315,7.626,13.078,-4.758,-1.759,2.200,1.820,-9.828,0.028,4.875,10.072,2.759,-2.025,4.694,-13.162,0.905,-12.672,-3.518,4.771,-3.457
2019.07.22 14:03:49.319,5.319,12.262,-5.003,-3.361,4.660,-0.529,-12.833,0.310,6.533,8.211,1.737,0.709,3.832,-11.845,-0.040,-6.413,-6.259,2.224,-2.077
2019.07.22 14:03:49.323,3.423,11.300,-4.746,-3.832,6.517,-2.163,-14.141,2.504,7.771,6.959,1.182,3.230,3.584,-9.899,-0.818,-1.172,-7.329,-0.018,-1.581
2019.07.22 14:03:49.327,3.048,11.016,-3.863,-2.374,6.807,-1.849,-13.877,6.793,7.910,7.187,0.646,4.536,3.826,-8.820,-0.701,-0.258,-6.282,-1.093,-2.174
2019.07.22 14:03:49.331,4.852,11.830,-2.564,0.500,5.915,0.566,-12.838,11.726,7.073,8.715,-0.284,4.265,4.177,-9.514,0.271,-3.529,-3.567,-0.759,-3.336
2019.07.22 14:03:49.335,8.360,13.385,-1.457,3.228,5.078,3.827,-11.784,15.204,6.155,10.421,-1.655,2.826,4.124,-11.774,1.060,-8.009,-0.409,0.441,-4.336
2019.07.22 14:03:49.339,12.026,14.742,-1.156,4.263,5.340,6.013,-11.001,15.966,6.096,11.056,-3.135,1.135,3.306,-14.485,0.335,-10.470,1.804,1.554,-4.778
2019.07.22 14:03:49.343,14.171,15.048,-1.722,3.148,6.828,5.872,-10.404,14.413,7.029,10.153,-4.311,0.142,1.800,-16.355,-2.342,-9.798,2.323,1.901,-4.741
2019.07.22 14:03:49.347,14.140,14.165,-2.456,0.789,8.831,3.744,-9.927,12.149,8.049,8.350,-5.011,0.419,0.179,-16.654,-5.866,-7.392,1.451,1.517,-4.496
2019.07.22 14:03:49.351,12.707,12.782,-2.355,-1.298,10.463,1.290,-9.758,10.656,7.869,6.855,-5.358,1.951,-0.771,-15.514,-8.154,-5.546,0.250,1.036,-4.140
2019.07.22 14:03:49.355,11.338,11.907,-0.931,-2.160,11.262,0.217,-10.166,10.175,5.872,6.467,-5.546,4.179,-0.540,-13.678,-7.653,-5.398,-0.271,1.104,-3.515
2019.07.22 14:03:49.359,10.880,12.133,1.279,-2.071,11.294,0.990,-11.166,9.671,2.681,6.942,-5.562,6.236,0.732,-11.988,-4.611,-6.161,0.124,1.826,-2.434
2019.07.22 14:03:49.363,10.794,13.257,3.018,-2.153,10.799,2.571,-12.389,7.812,-0.259,7.194,-5.150,7.299,2.308,-10.974,-1.020,-6.113,0.828,2.711,-0.962
2019.07.22 14:03:49.367,9.650,14.510,3.266,-3.285,9.856,3.366,-13.356,4.131,-1.787,6.163,-4.069,6.939,3.323,-10.754,0.847,-4.262,1.020,3.134,0.547
2019.07.22 14:03:49.371,6.516,15.176,2.089,-5.235,8.387,2.555,-13.901,-0.578,-1.905,3.638,-2.429,5.318,3.335,-11.169,0.191,-1.158,0.459,2.895,1.692
2019.07.22 14:03:49.375,2.059,15.067,0.659,-6.786,6.450,0.711,-14.342,-4.864,-1.708,0.406,-0.778,3.112,2.550,-11.969,-1.683,1.736,-0.229,2.384,2.286
2019.07.22 14:03:49.379,-1.654,14.476,0.372,-6.754,4.459,-0.806,-15.187,-7.671,-2.416,-2.374,0.163,1.138,1.557,-12.941,-2.430,3.350,-0.039,2.235,2.390
2019.07.22 14:03:49.383,-2.612,13.721,1.744,-5.079,3.015,-1.075,-16.639,-8.955,-4.332,-4.002,-0.077,-0.132,0.788,-13.976,-0.612,3.678,1.557,2.799,2.106
2019.07.22 14:03:49.387,-0.438,12.724,3.964,-3.023,2.455,-0.406,-18.362,-9.440,-6.613,-4.621,-1.461,-0.865,0.152,-15.105,3.050,3.240,4.073,3.910,1.374
2019.07.22 14:03:49.391,3.186,11.042,5.456,-2.268,2.473,-0.024,-19.753,-9.833,-8.058,-4.887,-3.551,-1.723,-0.878,-16.472,6.147,2.039,6.252,5.130,0.021
2019.07.22 14:03:49.395,5.623,8.307,4.972,-3.608,2.197,-0.972,-20.516,-10.191,-8.242,-5.284,-5.854,-3.304,-2.801,-18.173,6.409,-0.716,6.883,6.177,-1.945
2019.07.22 14:03:49.399,5.074,4.677,2.359,-6.309,0.694,-3.224,-21.005,-9.978,-8.016,-5.715,-8.106,-5.560,-5.656,-20.038,3.427,-5.644,5.539,7.097,-4.094
2019.07.22 14:03:49.403,1.690,0.865,-1.534,-8.659,-2.423,-5.775,-21.999,-8.678,-8.920,-5.699,-10.253,-7.633,-8.954,-21.535,-1.112,-11.828,2.696,7.998,-5.670
2019.07.22 14:03:49.407,-2.773,-2.316,-5.609,-9.294,-6.717,-7.574,-24.038,-6.395,-11.953,-4.982,-12.201,-8.340,-12.003,-22.011,-4.797,-16.589,-0.786,8.633,-6.027
2019.07.22 14:03:49.411,-6.371,-4.506,-9.199,-8.244,-11.142,-8.433,-26.873,-3.922,-16.698,-3.979,-13.592,-7.023,-14.318,-21.213,-6.317,-17.058,-4.300,8.319,-5.077
2019.07.22 14:03:49.415,-8.283,-5.992,-12.151,-6.888,-14.597,-9.105,-29.517,-2.224,-21.504,-3.655,-13.863,-4.149,-15.761,-19.720,-6.226,-12.550,-7.723,6.396,-3.371
2019.07.22 14:03:49.419,-9.069,-7.378,-14.396,-6.884,-16.473,-10.512,-30.890,-1.784,-24.589,-4.911,-12.580,-1.163,-16.359,-18.834,-6.131,-5.719,-11.123,2.894,-1.711
2019.07.22 14:03:49.423,-9.850,-9.049,-15.571,-8.942,-16.900,-12.870,-30.570,-2.309,-25.190,-7.973,-9.813,0.407,-16.035,-19.811,-7.085,-1.174,-14.317,-1.200,-0.586
2019.07.22 14:03:49.427,-11.249,-10.880,-15.180,-12.359,-16.617,-15.519,-29.058,-2.987,-23.899,-12.239,-6.237,-0.036,-14.600,-22.906,-8.642,-2.292,-16.759,-4.418,0.104
2019.07.22 14:03:49.431,-12.945,-12.403,-13.150,-15.585,-16.557,-17.559,-27.353,-3.057,-22.018,-16.640,-2.873,-1.761,-12.039,-26.974,-9.355,-8.627,-17.884,-5.741,0.834
2019.07.22 14:03:49.435,-14.081,-13.216,-10.218,-17.265,-17.321,-18.644,-26.184,-2.246,-20.522,-20.189,-0.621,-3.292,-8.829,-30.086,-8.239,-16.082,-17.566,-5.272,1.925
2019.07.22 14:03:49.439,-13.990,-13.229,-7.640,-16.938,-18.796,-19.139,-25.518,-0.829,-19.460,-22.307,0.107,-3.543,-5.909,-30.837,-5.847,-19.928,-16.246,-4.094,3.174
2019.07.22 14:03:49.443,-12.615,-12.525,-6.364,-14.985,-20.114,-19.505,-24.696,0.628,-18.212,-22.812,-0.522,-2.653,-4.215,-29.415,-3.995,-18.425,-14.581,-3.395,3.950
2019.07.22 14:03:49.447,-10.372,-11.065,-6.344,-12.081,-20.067,-19.546,-23.080,1.598,-16.243,-21.763,-1.960,-1.855,-4.086,-27.540,-4.324,-14.129,-12.926,-3.585,3.687
2019.07.22 14:03:49.451,-7.805,-8.602,-6.600,-8.765,-17.828,-18.351,-20.664,1.779,-13.669,-19.435,-3.583,-2.451,-5.019,-27.213,-6.931,-11.783,-11.138,-4.092,2.350
2019.07.22 14:03:49.455,-5.401,-5.010,-6.038,-5.437,-13.587,-15.113,-18.178,1.113,-11.160,-16.422,-4.936,-4.695,-6.028,-29.168,-10.233,-14.383,-8.875,-3.995,0.511
2019.07.22 14:03:49.459,-3.635,-0.732,-4.316,-2.610,-8.627,-10.125,-16.616,-0.263,-9.334,-13.660,-5.826,-7.489,-6.344,-32.220,-12.173,-20.580,-6.093,-2.908,-1.035
2019.07.22 14:03:49.463,-2.938,3.149,-2.032,-0.926,-4.658,-4.981,-16.530,-2.054,-8.202,-12.110,-6.273,-9.151,-5.907,-34.072,-11.769,-25.567,-3.250,-1.345,-1.798
2019.07.22 14:03:49.467,-3.343,5.463,-0.060,-0.762,-2.755,-1.617,-17.605,-3.861,-7.150,-12.202,-6.393,-8.694,-5.263,-33.013,-9.736,-24.807,-0.991,-0.252,-1.850
2019.07.22 14:03:49.471,-4.080,5.804,1.332,-1.740,-2.613,-0.892,-18.789,-5.273,-5.463,-13.445,-6.261,-6.605,-4.961,-29.223,-7.740,-17.704,0.429,-0.122,-1.671
2019.07.22 14:03:49.475,-3.647,4.969,2.766,-2.708,-2.737,-1.873,-18.901,-6.015,-2.948,-14.607,-5.822,-4.515,-4.978,-24.694,-6.999,-8.279,1.417,-0.497,-1.756
2019.07.22 14:03:49.479,-0.672,4.511,5.130,-2.394,-1.536,-2.527,-17.333,-6.033,-0.151,-14.479,-4.920,-4.018,-4.693,-21.858,-7.422,-2.342,2.729,-0.302,-2.303
2019.07.22 14:03:49.483,4.887,5.622,8.575,-0.338,1.405,-1.310,-14.445,-5.458,1.959,-12.729,-3.443,-5.549,-3.450,-21.981,-7.939,-3.349,4.769,1.239,-3.202
2019.07.22 14:03:49.487,11.192,8.186,12.048,2.654,4.826,1.592,-11.433,-4.473,2.582,-10.205,-1.533,-8.171,-1.244,-24.513,-7.615,-10.102,7.118,3.883,-4.237
2019.07.22 14:03:49.491,15.318,10.795,13.850,4.978,6.534,4.411,-9.752,-3.209,1.505,-8.411,0.328,-10.357,1.072,-27.748,-6.493,-17.921,8.730,6.448,-5.258
2019.07.22 14:03:49.495,15.095,11.805,12.838,5.341,4.896,5.224,-10.372,-1.754,-0.888,-8.483,1.485,-11.084,2.285,-30.123,-5.447,-22.146,8.673,7.637,-6.182
2019.07.22 14:03:49.499,10.725,10.651,9.328,3.669,0.051,3.497,-13.277,-0.268,-3.916,-10.393,1.502,-10.367,1.670,-31.064,-5.259,-21.187,6.848,6.929,-6.851
2019.07.22 14:03:49.503,4.879,8.383,4.978,1.117,-6.083,0.501,-17.461,0.966,-6.959,-12.983,0.528,-8.904,-0.461,-30.842,-5.822,-16.939,4.098,4.860,-6.969
2019.07.22 14:03:49.507,1.028,6.939,1.752,-0.795,-10.997,-1.710,-21.458,1.649,-9.620,-14.764,-0.657,-7.266,-2.950,-29.831,-6.218,-12.649,1.638,2.514,-6.228
2019.07.22 14:03:49.511,1.150,7.700,0.779,-1.198,-13.110,-1.878,-24.105,1.673,-11.701,-14.911,-1.046,-5.435,-4.548,-28.020,-5.597,-10.262,0.295,0.734,-4.561
2019.07.22 14:03:49.515,4.511,10.466,1.936,-0.245,-12.535,-0.365,-25.104,1.270,-13.082,-13.705,-0.039,-3.069,-4.676,-25.278,-4.011,-9.401,0.138,-0.309,-2.311
2019.07.22 14:03:49.519,8.450,13.686,4.315,1.388,-10.613,1.381,-24.999,0.934,-13.633,-12.160,2.127,-0.194,-3.618,-22.019,-2.408,-8.484,0.736,-0.907,-0.134
2019.07.22 14:03:49.523,10.545,15.772,7.048,3.312,-8.691,2.223,-24.619,1.137,-13.194,-11.153,4.493,2.442,-2.097,-19.441,-1.767,-6.628,1.712,-1.281,1.320
2019.07.22 14:03:49.527,10.476,16.442,9.762,5.771,-7.143,2.358,-24.389,2.057,-11.619,-10.743,5.999,3.785,-0.630,-18.865,-2.123,-4.499,3.059,-1.279,1.753
2019.07.22 14:03:49.531,10.130,16.985,12.403,9.188,-5.351,3.123,-24.047,3.503,-8.874,-10.173,6.178,3.385,0.786,-20.581,-2.399,-3.407,4.954,-0.582,1.349
2019.07.22 14:03:49.535,11.921,19.198,14.790,13.370,-2.518,5.778,-23.027,5.076,-5.183,-8.527,5.424,1.983,2.463,-23.224,-1.213,-3.675,7.302,0.808,0.622
2019.07.22 14:03:49.539,16.694,23.806,16.432,17.136,1.413,10.305,-21.200,6.381,-1.148,-5.542,4.633,1.144,4.543,-24.406,1.979,-3.910,9.495,2.328,0.098
2019.07.22 14:03:49.543,22.872,29.630,16.798,18.841,5.512,15.193,-19.363,7.107,2.270,-1.995,4.506,2.116,6.696,-22.312,6.386,-1.999,10.674,3.132,0.042
2019.07.22 14:03:49.547,27.480,34.179,15.746,17.456,8.399,18.382,-18.972,6.940,4.011,0.598,5.022,4.797,8.256,-17.099,10.437,2.975,10.306,2.702,0.366
2019.07.22 14:03:49.551,28.182,35.266,13.626,13.351,9.070,18.581,-21.225,5.507,3.358,0.772,5.460,7.680,8.631,-10.984,12.877,9.570,8.582,1.263,0.736
2019.07.22 14:03:49.555,24.764,32.445,10.953,8.144,7.355,16.005,-26.129,2.524,0.314,-2.085,4.931,8.914,7.623,-6.865,13.476,14.658,6.310,-0.356,0.774
2019.07.22 14:03:49.559,19.024,27.246,8.022,3.698,3.766,12.063,-32.307,-1.853,-4.349,-7.379,2.964,7.696,5.386,-6.470,12.781,15.514,4.393,-1.306,0.246
2019.07.22 14:03:49.563,13.359,22.093,4.886,1.048,-0.954,8.374,-37.741,-6.765,-9.432,-13.549,-0.246,4.906,2.166,-9.356,11.231,11.739,3.326,-1.255,-0.845
2019.07.22 14:03:49.567,9.294,18.773,1.767,0.031,-6.123,5.891,-40.960,-10.811,-13.839,-18.763,-4.060,2.480,-1.890,-13.422,8.535,5.583,3.081,-0.490,-2.290
2019.07.22 14:03:49.571,7.027,17.553,-0.564,-0.183,-11.024,4.669,-41.819,-12.666,-16.946,-21.703,-7.802,2.021,-6.586,-16.420,3.978,0.472,3.382,0.464,-3.786
2019.07.22 14:03:49.575,6.099,17.486,-0.985,-0.200,-14.734,4.231,-41.317,-11.838,-18.603,-22.070,-11.021,3.690,-11.361,-17.278,-2.571,-1.134,4.028,1.292,-5.102
2019.07.22 14:03:49.579,6.316,17.479,1.195,0.096,-16.236,4.100,-40.666,-9.012,-18.881,-20.590,-13.437,6.216,-15.159,-16.372,-9.855,0.902,4.961,2.034,-6.187
2019.07.22 14:03:49.583,8.007,17.225,5.471,1.293,-14.956,4.086,-40.378,-5.688,-17.876,-18.547,-14.772,7.899,-16.783,-14.792,-15.499,4.579,6.071,2.859,-7.167
2019.07.22 14:03:49.587,11.408,17.309,10.153,3.768,-11.324,4.253,-40.089,-3.312,-15.783,-17.100,-14.718,7.777,-15.606,-13.425,-17.345,7.120,7.048,3.742,-8.196
2019.07.22 14:03:49.591,15.889,18.539,13.335,7.203,-6.824,4.748,-39.153,-2.477,-13.148,-16.753,-13.164,6.057,-12.145,-12.598,-14.924,6.507,7.522,4.404,-9.273
2019.07.22 14:03:49.595,19.878,21.131,14.154,10.701,-3.347,5.656,-37.440,-2.756,-10.942,-17.268,-10.461,3.623,-7.999,-12.375,-9.925,2.373,7.415,4.553,-10.142
2019.07.22 14:03:49.599,21.719,24.409,13.329,13.331,-2.180,6.905,-35.575,-3.248,-10.217,-18.022,-7.424,1.180,-5.052,-12.942,-5.226,-4.012,7.144,4.167,-10.398
2019.07.22 14:03:49.603,20.818,27.188,12.468,14.600,-3.328,8.165,-34.421,-3.388,-11.450,-18.542,-4.959,-1.183,-4.408,-14.558,-3.117,-10.395,7.363,3.511,-9.759
2019.07.22 14:03:49.607,18.119,28.457,12.675,14.485,-5.632,8.822,-34.246,-3.391,-14.060,-18.808,-3.536,-3.718,-5.745,-17.075,-3.983,-14.493,8.370,2.841,-8.311
2019.07.22 14:03:49.611,15.462,27.848,13.586,13.115,-7.565,8.164,-34.354,-3.991,-16.566,-19.113,-2.907,-6.422,-7.537,-19.615,-6.326,-14.929,9.664,2.104,-6.543
2019.07.22 14:03:49.615,14.305,25.629,13.678,10.525,-8.119,5.835,-33.528,-5.722,-17.390,-19.608,-2.322,-8.766,-8.025,-20.886,-8.009,-11.867,10.107,0.944,-5.110
2019.07.22 14:03:49.619,14.775,22.382,11.626,6.772,-7.211,2.302,-30.986,-8.318,-15.845,-19.932,-1.088,-10.040,-6.287,-20.046,-7.741,-6.996,8.687,-0.927,-4.464
2019.07.22 14:03:49.623,15.742,18.712,7.584,2.313,-5.425,-1.083,-27.072,-10.728,-12.592,-19.287,0.938,-9.984,-2.747,-17.411,-5.738,-2.713,5.335,-3.320,-4.604
2019.07.22 14:03:49.627,15.786,15.170,3.276,-1.833,-3.461,-2.670,-23.125,-11.755,-9.253,-16.969,3.296,-9.054,1.169,-14.344,-3.216,-0.812,1.134,-5.536,-5.101
2019.07.22 14:03:49.631,14.247,12.299,0.769,-4.428,-1.740,-1.488,-20.630,-10.842,-7.415,-12.981,5.310,-8.049,3.937,-12.335,-1.291,-1.478,-2.312,-6.797,-5.389
2019.07.22 14:03:49.635,11.592,10.596,0.898,-4.729,-0.386,2.050,-20.306,-8.451,-7.728,-8.248,6.590,-7.414,4.782,-11.983,-0.224,-3.362,-3.913,-6.830,-5.094
2019.07.22 14:03:49.639,8.929,10.316,2.611,-3.047,0.552,6.294,-21.789,-5.764,-9.671,-4.219,7.222,-6.889,3.949,-12.727,0.445,-4.791,-3.768,-6.105,-4.226
2019.07.22 14:03:49.643,7.162,11.283,3.766,-0.648,0.958,9.338,-24.060,-3.956,-12.073,-2.096,7.542,-5.882,2.311,-13.517,1.111,-5.229,-2.976,-5.492,-3.110
2019.07.22 14:03:49.647,6.475,12.932,2.725,1.003,0.731,10.187,-26.189,-3.529,-13.923,-2.206,7.704,-4.246,0.658,-13.810,1.441,-5.789,-2.751,-5.594,-2.180
2019.07.22 14:03:49.651,6.433,14.603,-0.509,1.135,-0.053,9.246,-27.791,-4.127,-14.898,-3.926,7.455,-2.713,-0.813,-14.000,0.452,-8.219,-3.548,-6.280,-1.756
2019.07.22 14:03:49.655,6.474,15.914,-4.428,0.066,-1.108,7.827,-28.938,-4.850,-15.305,-6.144,6.300,-2.481,-2.519,-14.901,-2.712,-13.099,-4.826,-6.801,-1.938
2019.07.22 14:03:49.659,6.320,16.903,-7.202,-1.136,-2.116,7.094,-29.770,-4.819,-15.636,-7.888,3.933,-4.182,-5.052,-16.793,-7.934,-18.766,-5.578,-6.393,-2.614
2019.07.22 14:03:49.663,6.043,17.846,-7.866,-1.443,-2.929,7.302,-30.223,-3.592,-16.128,-8.687,0.565,-7.101,-8.635,-18.928,-13.917,-22.077,-5.123,-4.869,-3.538
2019.07.22 14:03:49.667,5.870,18.937,-6.627,-0.490,-3.563,7.904,-30.123,-1.275,-16.644,-8.522,-3.115,-9.397,-12.838,-20.008,-18.824,-20.637,-3.531,-2.734,-4.433
2019.07.22 14:03:49.671,6.016,20.118,-4.258,1.360,-3.966,8.322,-29.455,1.627,-16.836,-7.556,-6.296,-9.292,-16.709,-19.265,-21.298,-14.818,-1.410,-0.774,-5.098
2019.07.22 14:03:49.675,6.689,21.202,-1.295,3.433,-3.778,8.642,-28.466,4.456,-16.381,-5.947,-8.444,-6.387,-19.218,-17.172,-21.152,-7.864,0.674,0.515,-5.494
2019.07.22 14:03:49.679,8.129,22.143,2.179,5.238,-2.382,9.571,-27.461,6.604,-15.090,-3.885,-9.434,-2.053,-19.711,-15.116,-19.253,-3.788,2.602,1.200,-5.744
2019.07.22 14:03:49.683,10.522,23.144,6.086,6.637,0.689,11.690,-26.472,7.646,-12.891,-1.706,-9.391,1.446,-18.129,-14.259,-16.764,-4.552,4.637,1.697,-6.029
2019.07.22 14:03:49.687,13.740,24.461,9.819,7.684,5.252,14.670,-25.141,7.436,-9.825,0.127,-8.426,2.477,-14.929,-14.532,-14.364,-8.683,7.009,2.324,-6.411
2019.07.22 14:03:49.691,17.162,26.047,12.316,8.362,10.302,17.203,-22.975,6.153,-6.111,1.254,-6.561,1.056,-10.833,-14.665,-12.014,-12.439,9.563,3.003,-6.730
2019.07.22 14:03:49.695,19.812,27.378,12.749,8.533,14.353,17.784,-19.755,4.260,-2.212,1.644,-3.892,-1.378,-6.582,-13.256,-9.388,-12.658,11.778,3.366,-6.698
2019.07.22 14:03:49.699,20.841,27.695,11.230,8.099,16.118,15.777,-15.738,2.332,1.221,1.593,-0.828,-3.198,-2.830,-10.028,-6.544,-9.115,13.090,3.090,-6.165
2019.07.22 14:03:49.703,20.031,26.517,8.794,7.179,15.107,11.912,-11.484,0.816,3.556,1.425,1.864,-3.831,-0.139,-6.220,-4.229,-4.603,13.210,2.169,-5.349
2019.07.22 14:03:49.707,17.951,24.050,6.596,6.079,11.770,7.844,-7.492,-0.141,4.410,1.154,3.355,-4.048,1.050,-3.769,-3.506,-2.771,12.178,0.878,-4.811
2019.07.22 14:03:49.711,15.610,21.147,4.995,5.080,7.178,5.104,-4.018,-0.687,3.742,0.423,3.211,-5.131,0.537,-3.920,-4.966,-5.426,10.197,-0.484,-5.090
2019.07.22 14:03:49.715,13.868,18.813,3.360,4.239,2.507,4.244,-1.224,-1.073,1.782,-1.165,1.724,-7.655,-1.464,-6.355,-8.116,-11.351,7.486,-1.803,-6.247
2019.07.22 14:03:49.719,13.016,17.622,0.833,3.421,-1.355,4.746,0.532,-1.415,-1.089,-3.581,-0.178,-10.880,-4.280,-9.492,-11.470,-17.354,4.321,-3.136,-7.668
2019.07.22 14:03:49.723,12.788,17.455,-2.616,2.522,-3.943,5.625,0.670,-1.584,-4.379,-6.191,-1.418,-13.221,-6.988,-11.657,-13.352,-20.554,1.190,-4.507,-8.376
2019.07.22 14:03:49.727,12.674,17.686,-5.811,1.640,-5.190,6.144,-1.225,-1.314,-7.446,-8.078,-1.399,-13.402,-8.837,-12.202,-12.922,-20.092,-1.218,-5.762,-7.679
2019.07.22 14:03:49.731,12.241,17.600,-7.123,0.977,-5.384,6.098,-4.870,-0.457,-9.588,-8.661,-0.359,-11.388,-9.675,-11.757,-10.721,-17.167,-2.312,-6.625,-5.710
2019.07.22 14:03:49.735,11.188,16.668,-5.792,0.523,-5.136,5.556,-9.139,0.801,-10.337,-8.117,0.741,-8.420,-10.051,-11.549,-8.350,-13.734,-2.039,-6.919,-3.411
2019.07.22 14:03:49.739,9.232,14.539,-2.724,-0.161,-5.247,4.472,-12.583,1.936,-9.854,-7.235,0.787,-6.177,-10.895,-12.427,-7.480,-11.159,-1.053,-6.723,-1.940
2019.07.22 14:03:49.743,6.072,10.879,-0.033,-1.787,-6.413,2.599,-14.336,2.325,-9.061,-6.798,-0.818,-5.750,-12.889,-14.330,-8.836,-9.818,-0.404,-6.313,-1.895
2019.07.22 14:03:49.747,1.578,5.399,0.383,-4.818,-8.861,-0.204,-14.723,1.612,-9.234,-6.942,-3.743,-7.118,-15.940,-16.467,-11.791,-9.618,-0.867,-5.927,-2.941
2019.07.22 14:03:49.751,-3.935,-1.870,-1.853,-8.973,-12.171,-3.604,-15.034,-0.055,-11.188,-7.037,-6.845,-9.401,-19.092,-17.895,-14.804,-10.570,-2.417,-5.579,-4.113
2019.07.22 14:03:49.755,-9.686,-10.285,-5.428,-13.197,-15.471,-6.786,-16.549,-2.049,-14.597,-6.154,-8.758,-11.557,-20.992,-17.991,-16.368,-12.731,-4.285,-5.102,-4.546
2019.07.22 14:03:49.759,-14.853,-18.694,-8.409,-16.234,-17.943,-8.891,-19.533,-3.580,-18.026,-3.789,-8.625,-12.978,-20.656,-16.548,-15.839,-15.645,-5.583,-4.372,-4.069
2019.07.22 14:03:49.763,-19.233,-26.076,-9.709,-17.457,-19.332,-9.607,-22.963,-4.126,-19.788,-0.265,-6.571,-13.621,-18.052,-13.655,-13.674,-18.084,-6.041,-3.497,-3.209
2019.07.22 14:03:49.767,-23.621,-32.381,-9.806,-17.346,-20.133,-9.433,-25.221,-3.698,-19.092,3.462,-3.632,-13.752,-14.165,-9.618,-11.017,-18.600,-6.283,-2.801,-2.659
2019.07.22 14:03:49.771,-29.534,-38.916,-10.270,-17.244,-21.324,-9.399,-25.227,-2.793,-16.653,6.405,-1.174,-13.609,-10.481,-4.998,-8.998,-16.597,-7.400,-2.578,-2.664
2019.07.22 14:03:49.775,-38.356,-47.835,-12.555,-18.515,-23.849,-10.456,-23.155,-2.042,-14.255,8.092,-0.145,-13.245,-8.212,-0.587,-8.193,-12.956,-10.164,-2.871,-2.843
2019.07.22 14:03:49.779,-50.457,-60.905,-17.042,-21.698,-28.156,-12.948,-20.228,-1.793,-13.543,8.676,-0.604,-12.590,-7.727,2.842,-8.495,-9.531,-14.471,-3.457,-2.561
2019.07.22 14:03:49.783,-64.909,-78.292,-22.955,-26.238,-34.049,-16.516,-17.805,-1.916,-14.901,8.642,-1.791,-11.581,-8.482,4.940,-9.340,-7.817,-19.439,-4.072,-1.503
2019.07.22 14:03:49.787,-80.008,-98.206,-29.037,-30.947,-40.820,-20.401,-16.501,-1.964,-17.233,8.411,-2.671,-10.237,-9.438,5.987,-10.045,-7.872,-24.041,-4.672,0.042
2019.07.22 14:03:49.791,-94.191,-117.680,-34.305,-34.814,-47.535,-23.869,-15.951,-1.586,-18.760,8.187,-2.585,-8.656,-9.680,6.656,-10.061,-8.422,-27.739,-5.471,1.423
2019.07.22 14:03:49.795,-106.692,-134.002,-38.302,-37.545,-53.276,-26.483,-15.309,-0.854,-18.216,8.045,-1.583,-6.998,-8.841,7.460,-9.118,-8.053,-30.620,-6.734,2.155
2019.07.22 14:03:49.799,-117.486,-145.880,-40.849,-39.478,-57.325,-28.126,-13.957,-0.252,-15.551,8.091,-0.273,-5.478,-7.151,8.340,-7.295,-6.441,-32.978,-8.464,2.264
2019.07.22 14:03:49.803,-126.690,-153.672,-41.749,-41.010,-59.321,-28.898,-11.862,-0.286,-11.742,8.447,0.667,-4.336,-5.155,8.786,-5.033,-4.528,-34.754,-10.286,2.178
2019.07.22 14:03:49.807,-134.010,-158.677,-40.850,-42.078,-59.389,-29.024,-9.425,-1.004,-8.002,9.085,0.920,-3.732,-3.343,8.427,-3.024,-3.508,-35.379,-11.621,2.269
2019.07.22 14:03:49.811,-138.745,-162.131,-38.430,-42.128,-58.191,-28.804,-7.087,-1.832,-5.112,9.725,0.643,-3.619,-1.941,7.559,-1.919,-3.588,-34.198,-12.037,2.503
2019.07.22 14:03:49.815,-140.383,-164.619,-35.464,-40.622,-56.777,-28.552,-5.140,-1.889,-3.337,9.985,0.223,-3.714,-0.939,7.105,-1.962,-3.706,-31.164,-11.521,2.491
2019.07.22 14:03:49.819,-139.285,-166.180,-33.389,-37.636,-56.239,-28.475,-3.851,-0.622,-2.775,9.722,-0.054,-3.640,-0.276,7.935,-2.774,-2.527,-27.218,-10.466,1.905
2019.07.22 14:03:49.823,-136.832,-166.768,-33.424,-34.049,-57.303,-28.541,-3.645,1.717,-3.625,9.268,-0.144,-3.178,0.034,10.104,-3.497,0.170,-23.959,-9.421,0.870
2019.07.22 14:03:49.827,-134.834,-166.560,-35.921,-31.100,-60.059,-28.459,-5.009,4.136,-5.978,9.299,-0.115,-2.429,-0.063,12.677,-3.257,3.030,-22.781,-8.797,-0.024
2019.07.22 14:03:49.831,-134.556,-165.809,-40.211,-29.606,-63.950,-27.833,-8.073,5.505,-9.356,10.392,0.084,-1.732,-0.480,14.374,-1.666,4.136,-24.017,-8.718,-0.128
2019.07.22 14:03:49.835,-136.034,-164.493,-45.031,-29.437,-68.003,-26.404,-12.219,5.296,-12.532,12.589,0.703,-1.397,-0.858,14.566,0.976,2.704,-26.712,-9.061,0.783
2019.07.22 14:03:49.839,-138.144,-162.182,-49.161,-29.629,-71.161,-24.234,-16.169,3.913,-14.031,15.337,1.990,-1.443,-0.628,13.806,3.922,-0.016,-29.173,-9.586,2.330
2019.07.22 14:03:49.843,-139.344,-158.376,-51.803,-29.102,-72.595,-21.712,-18.601,2.378,-13.047,17.871,3.884,-1.587,0.674,13.434,6.452,-1.531,-29.947,-10.024,3.785
2019.07.22 14:03:49.847,-138.565,-153.049,-52.558,-27.450,-71.915,-19.374,-18.921,1.613,-10.054,19.734,5.856,-1.485,3.044,14.526,8.211,-0.071,-28.590,-10.094,4.536
2019.07.22 14:03:49.851,-135.669,-146.913,-51.214,-25.249,-69.276,-17.668,-17.569,1.845,-6.528,21.001,7.101,-1.030,5.853,17.025,9.181,3.847,-25.766,-9.527,4.381
2019.07.22 14:03:49.855,-131.274,-141.063,-47.689,-23.652,-65.316,-16.761,-15.618,2.561,-3.905,22.034,6.982,-0.460,8.068,19.729,9.390,7.588,-22.706,-8.133,3.490
2019.07.22 14:03:49.859,-126.181,-136.235,-42.232,-23.564,-60.907,-16.484,-13.950,2.998,-2.571,22.980,5.436,-0.170,8.781,21.134,8.699,8.258,-20.422,-5.927,2.138
2019.07.22 14:03:49.863,-120.858,-132.239,-35.638,-25.006,-56.760,-16.411,-12.681,2.724,-1.733,23.486,3.045,-0.413,7.709,20.450,6.922,4.845,-19.216,-3.205,0.513
2019.07.22 14:03:49.867,-115.269,-128.068,-29.145,-27.078,-53.061,-16.048,-11.256,1.871,-0.287,22.896,0.710,-1.116,5.338,18.020,4.177,-0.981,-18.715,-0.481,-1.267
2019.07.22 14:03:49.871,-109.050,-122.635,-23.949,-28.539,-49.384,-15.069,-9.111,0.880,2.038,20.800,-0.849,-1.978,2.586,14.888,1.105,-6.017,-18.286,1.693,-2.993
2019.07.22 14:03:49.875,-101.810,-115.556,-20.613,-28.543,-44.998,-13.487,-6.312,0.047,4.262,17.519,-1.461,-2.724,0.203,11.985,-1.342,-7.692,-17.478,2.933,-4.309
2019.07.22 14:03:49.879,-93.359,-107.369,-18.791,-27.026,-39.409,-11.643,-3.597,-0.672,4.892,14.085,-1.497,-3.278,-1.652,9.620,-2.487,-5.646,-16.168,3.146,-4.869
2019.07.22 14:03:49.883,-83.813,-99.008,-17.483,-24.515,-32.786,-9.958,-1.794,-1.450,3.252,11.740,-1.547,-3.705,-3.351,7.656,-2.440,-1.668,-14.394,2.532,-4.576
2019.07.22 14:03:49.887,-73.616,-90.985,-15.620,-21.601,-25.925,-8.563,-1.093,-2.182,0.302,11.278,-1.979,-4.008,-5.294,6.068,-2.053,1.746,-12.107,1.479,-3.672
2019.07.22 14:03:49.891,-63.497,-82.987,-12.601,-18.514,-19.779,-7.062,-0.816,-2.321,-1.822,12.706,-2.691,-3.975,-7.355,5.289,-2.276,3.038,-9.109,0.416,-2.554
2019.07.22 14:03:49.895,-54.288,-74.212,-8.474,-15.120,-14.854,-4.680,0.102,-1.185,-1.270,15.406,-3.161,-3.277,-8.773,5.975,-3.344,2.303,-5.261,-0.334,-1.460
2019.07.22 14:03:49.899,-46.587,-64.168,-3.769,-11.259,-10.947,-0.760,2.265,1.477,2.153,18.602,-2.775,-1.714,-8.602,8.402,-4.456,0.829,-0.780,-0.676,-0.302
2019.07.22 14:03:49.903,-40.384,-53.236,0.795,-7.068,-7.388,4.683,5.271,5.142,6.775,21.756,-1.224,0.581,-6.459,12.065,-4.255,0.111,3.646,-0.804,1.193
2019.07.22 14:03:49.907,-34.953,-42.493,4.536,-2.979,-3.596,10.803,7.887,8.743,10.180,24.643,1.246,3.192,-2.986,15.891,-1.815,1.103,7.092,-1.128,3.161
2019.07.22 14:03:49.911,-29.205,-32.949,6.947,0.613,0.504,16.320,8.819,11.355,10.809,27.160,3.869,5.677,0.359,18.942,2.578,4.032,8.873,-2.076,5.388
2019.07.22 14:03:49.915,-22.404,-24.828,7.795,3.669,4.506,20.257,7.508,12.805,8.865,29.139,5.688,7.820,2.103,21.021,7.459,8.512,8.924,-3.835,7.421
2019.07.22 14:03:49.919,-14.779,-17.537,7.238,6.496,7.916,22.462,4.415,13.741,5.910,30.366,6.015,9.679,1.617,22.680,11.023,13.642,7.826,-6.201,8.905
2019.07.22 14:03:49.923,-7.547,-10.357,5.808,9.359,10.535,23.539,0.653,15.079,3.610,30.794,4.789,11.393,-0.541,24.636,12.181,18.086,6.422,-8.647,9.840
2019.07.22 14:03:49.927,-2.207,-3.265,4.189,12.038,12.519,24.250,-2.688,17.279,2.651,30.712,2.620,12.961,-3.033,27.087,11.126,20.419,5.291,-10.594,10.515
2019.07.22 14:03:49.931,0.447,2.834,2.840,13.787,14.105,24.894,-5.051,20.030,2.611,30.679,0.482,14.183,-4.568,29.487,9.047,19.864,4.450,-11.702,11.167
2019.07.22 14:03:49.935,0.907,6.738,1.746,13.807,15.316,25.183,-6.465,22.572,2.696,31.215,-0.794,14.808,-4.608,30.950,7.290,16.993,3.483,-11.981,11.681
2019.07.22 14:03:49.939,0.616,7.950,0.527,11.937,15.934,24.691,-7.242,24.361,2.590,32.456,-0.933,14.731,-3.489,30.903,6.563,13.731,1.987,-11.653,11.628
2019.07.22 14:03:49.943,0.952,7.245,-1.127,9.015,15.789,23.449,-7.636,25.487,2.641,34.024,-0.299,14.056,-2.015,29.464,6.689,12.322,0.006,-10.918,10.642
2019.07.22 14:03:49.947,2.300,6.325,-3.017,6.557,15.051,22.107,-7.710,26.505,3.319,35.218,0.387,12.971,-0.891,27.277,6.933,13.793,-1.862,-9.814,8.815
2019.07.22 14:03:49.951,3.953,6.784,-4.411,5.933,14.252,21.485,-7.437,27.814,4.546,35.418,0.492,11.593,-0.413,25.024,6.569,17.031,-2.760,-8.293,6.748
2019.07.22 14:03:49.955,4.982,9.217,-4.484,7.616,13.994,21.896,-6.853,29.160,5.588,34.454,-0.223,9.945,-0.523,23.084,5.293,19.325,-2.040,-6.418,5.170
2019.07.22 14:03:49.959,5.363,13.124,-2.904,11.013,14.611,22.879,-6.092,29.695,5.685,32.735,-1.578,8.089,-1.031,21.589,3.315,18.198,0.418,-4.451,4.423
2019.07.22 14:03:49.963,6.388,17.628,-0.081,14.983,16.091,23.628,-5.274,28.595,4.857,31.077,-3.182,6.257,-1.729,20.727,1.216,13.283,4.202,-2.730,4.221
2019.07.22 14:03:49.967,9.883,22.336,3.142,18.578,18.282,23.774,-4.363,25.722,4.135,30.306,-4.652,4.786,-2.325,20.905,-0.264,6.848,8.624,-1.424,3.888
2019.07.22 14:03:49.971,16.719,27.597,6.080,21.443,21.093,23.801,-3.151,21.817,4.895,30.844,-5.683,3.874,-2.375,22.510,-0.465,2.463,12.986,-0.397,2.893
2019.07.22 14:03:49.975,25.774,33.928,8.564,23.637,24.416,24.686,-1.395,18.048,7.772,32.479,-6.001,3.374,-1.427,25.462,0.945,2.665,16.705,0.650,1.236
2019.07.22 14:03:49.979,34.267,41.170,10.771,25.145,27.800,27.014,0.963,15.302,11.996,34.465,-5.356,2.859,0.638,28.962,3.738,7.255,19.305,1.858,-0.585
2019.07.22 14:03:49.983,39.378,48.163,12.721,25.614,30.268,30.361,3.656,13.753,15.752,35.926,-3.665,1.986,3.339,31.780,7.077,13.387,20.416,2.991,-1.983
2019.07.22 14:03:49.987,40.073,53.342,13.969,24.611,30.672,33.529,6.134,13.025,17.333,36.374,-1.208,0.860,5.711,32.940,9.813,17.372,19.888,3.541,-2.702
2019.07.22 14:03:49.991,37.792,55.840,13.863,22.169,28.519,35.497,7.809,12.703,16.300,36.018,1.331,0.058,6.832,32.329,11.032,16.931,17.964,3.111,-2.915
2019.07.22 14:03:49.995,35.466,56.224,12.183,19.091,24.672,36.267,8.367,12.742,13.783,35.646,3.132,0.202,6.404,30.749,10.529,12.409,15.315,1.768,-2.990
2019.07.22 14:03:49.999,35.550,56.202,9.579,16.638,21.223,36.828,7.976,13.417,11.726,36.086,3.682,1.381,4.930,29.359,8.827,6.288,12.830,0.067,-3.149
2019.07.22 14:03:50.003,38.488,57.474,7.310,15.756,20.394,38.215,7.235,14.916,11.616,37.587,3.072,2.919,3.305,28.916,6.675,1.526,11.229,-1.308,-3.340
2019.07.22 14:03:50.007,42.692,60.564,6.398,16.459,23.090,40.468,6.843,17.019,13.571,39.582,1.862,3.723,2.080,29.356,4.373,-0.116,10.761,-1.983,-3.385
2019.07.22 14:03:50.011,45.940,64.532,6.867,17.891,28.181,42.474,7.148,19.181,16.361,41.038,0.593,3.037,1.015,29.978,1.506,1.198,11.201,-2.064,-3.220
2019.07.22 14:03:50.015,47.080,67.776,7.764,19.076,33.148,42.918,7.879,20.980,18.295,41.223,-0.686,0.995,-0.725,30.010,-2.648,3.792,12.148,-1.896,-2.982
2019.07.22 14:03:50.019,46.742,69.273,8.002,19.749,35.737,41.577,8.296,22.503,18.318,40.314,-2.439,-1.455,-3.795,29.087,-8.291,5.501,13.375,-1.640,-2.876
2019.07.22 14:03:50.023,46.622,69.293,7.374,20.583,35.477,39.806,7.721,24.287,16.632,39.358,-5.148,-3.247,-7.937,27.307,-14.538,4.653,14.947,-1.071,-2.976
2019.07.22 14:03:50.027,48.020,69.054,6.845,22.574,33.925,39.632,6.152,26.818,14.495,39.527,-8.681,-3.962,-11.870,24.931,-19.654,0.656,17.016,0.222,-3.173
2019.07.22 14:03:50.031,50.840,69.627,7.791,26.067,33.445,42.107,4.469,29.984,13.413,41.197,-12.096,-4.054,-13.958,22.088,-22.006,-5.821,19.470,2.384,-3.327
2019.07.22 14:03:50.035,53.791,71.016,10.753,30.235,35.412,46.245,4.011,32.985,14.246,43.557,-14.126,-4.371,-13.235,18.816,-21.076,-12.979,21.770,5.024,-3.450
2019.07.22 14:03:50.039,55.499,72.146,14.743,33.472,39.197,49.522,5.700,34.800,16.746,45.099,-14.060,-5.357,-10.048,15.400,-17.767,-18.338,23.156,7.383,-3.733
2019.07.22 14:03:50.043,55.574,71.779,17.762,34.477,42.668,49.677,9.331,34.879,19.748,44.699,-12.341,-6.628,-5.877,12.645,-13.775,-19.588,23.117,8.851,-4.356
2019.07.22 14:03:50.047,54.778,69.610,18.228,33.199,43.809,46.438,13.553,33.490,21.852,42.479,-10.358,-7.289,-2.453,11.712,-10.494,-15.652,21.789,9.407,-5.270
2019.07.22 14:03:50.051,54.285,66.678,16.227,30.924,42.226,41.820,16.677,31.470,22.213,39.795,-9.535,-6.727,-0.775,13.502,-8.303,-7.458,19.970,9.600,-6.178
2019.07.22 14:03:50.055,54.746,64.747,13.577,29.435,39.443,38.715,17.767,29.585,20.991,38.327,-10.353,-5.196,-0.664,17.968,-6.678,2.201,18.712,10.090,-6.751
2019.07.22 14:03:50.059,55.961,65.127,12.588,29.861,37.819,38.854,17.251,28.059,19.235,38.917,-12.037,-3.674,-1.070,23.912,-4.932,9.916,18.739,11.096,-6.896
2019.07.22 14:03:50.063,57.310,67.804,14.409,32.047,38.938,41.688,16.556,26.648,18.255,41.030,-13.151,-3.043,-0.830,29.498,-2.877,13.460,20.061,12.222,-6.796
2019.07.22 14:03:50.067,58.435,71.493,18.190,34.836,42.617,45.009,17.006,25.160,18.848,43.196,-12.613,-3.287,0.660,33.215,-0.843,13.080,22.006,12.779,-6.677
2019.07.22 14:03:50.071,59.501,74.510,21.693,36.953,47.141,46.713,18.791,23.920,20.853,44.079,-10.389,-3.382,3.253,34.668,0.864,11.329,23.620,12.322,-6.500
2019.07.22 14:03:50.075,60.824,75.802,22.861,37.793,50.434,46.278,20.781,23.702,23.305,43.343,-7.367,-2.057,6.332,34.639,2.483,11.382,24.181,10.956,-5.904
2019.07.22 14:03:50.079,62.329,75.423,21.218,37.564,51.271,44.858,21.356,25.128,25.102,41.718,-4.589,1.126,9.273,34.395,4.702,14.830,23.540,9.195,-4.498
2019.07.22 14:03:50.083,63.435,74.218,18.094,36.840,49.783,44.065,19.633,28.007,25.745,40.293,-2.512,5.242,11.731,34.748,7.981,20.415,22.137,7.523,-2.291
2019.07.22 14:03:50.087,63.537,73.077,15.615,35.984,47.107,44.563,16.156,31.201,25.627,39.687,-0.862,8.493,13.634,35.534,11.875,24.688,20.728,6.077,0.140
2019.07.22 14:03:50.091,62.628,72.358,15.258,34.952,44.580,45.634,12.547,33.219,25.666,39.730,0.880,9.400,14.988,35.885,15.035,24.293,19.987,4.694,1.937
2019.07.22 14:03:50.095,61.416,71.841,16.985,33.550,43.045,45.974,10.370,33.134,26.528,39.829,2.840,7.832,15.705,35.037,16.020,18.426,20.186,3.248,2.525
2019.07.22 14:03:50.099,60.718,71.116,19.471,31.809,42.569,44.922,10.074,31.165,28.024,39.590,4.559,5.078,15.580,33.012,14.317,9.738,21.088,1.916,1.997
2019.07.22 14:03:50.103,60.668,70.007,21.097,30.100,42.571,43.020,10.791,28.472,29.148,39.097,5.379,2.900,14.417,30.620,10.751,2.904,22.103,1.127,0.986
2019.07.22 14:03:50.107,60.486,68.664,20.957,28.855,42.161,41.477,11.081,26.337,28.746,38.631,5.034,2.245,12.188,28.759,6.898,1.637,22.638,1.213,0.102
2019.07.22 14:03:50.111,59.134,67.323,19.212,28.190,40.564,41.041,10.011,25.330,26.345,38.142,3.915,2.573,9.103,27.564,3.949,6.103,22.434,2.108,-0.587
2019.07.22 14:03:50.115,56.343,66.002,16.740,27.773,37.510,41.300,7.747,25.068,22.527,37.036,2.754,2.292,5.564,26.139,1.904,12.563,21.706,3.357,-1.591
2019.07.22 14:03:50.119,53.078,64.420,14.467,27.092,33.446,40.985,5.285,24.683,18.568,34.546,2.028,-0.040,2.036,23.146,-0.245,15.633,20.965,4.446,-3.499
2019.07.22 14:03:50.123,50.901,62.222,12.888,25.887,29.415,38.985,3.627,23.558,15.612,30.418,1.597,-4.625,-1.112,17.890,-3.517,11.802,20.640,5.164,-6.355
2019.07.22 14:03:50.127,50.668,59.301,11.998,24.355,26.543,35.194,3.092,21.750,13.987,25.296,0.905,-10.235,-3.703,11.053,-7.942,1.841,20.745,5.688,-9.452
2019.07.22 14:03:50.131,51.659,55.947,11.539,22.969,25.369,30.532,3.280,19.795,13.149,20.433,-0.448,-15.006,-5.744,4.478,-12.370,-9.552,20.854,6.345,-11.757
2019.07.22 14:03:50.135,51.957,52.695,11.276,22.046,25.471,26.191,3.594,18.143,12.246,16.888,-2.279,-17.621,-7.323,0.076,-15.255,-16.720,20.428,7.271,-12.653
2019.07.22 14:03:50.139,49.914,49.994,11.137,21.455,25.700,22.811,3.828,16.745,10.831,14.854,-3.913,-18.014,-8.479,-1.389,-15.773,-16.631,19.259,8.289,-12.399
2019.07.22 14:03:50.143,45.545,47.967,11.193,20.735,24.957,20.238,4.298,15.152,9.172,13.651,-4.712,-17.161,-9.147,-0.731,-14.402,-10.679,17.705,9.077,-11.935
2019.07.22 14:03:50.147,40.694,46.433,11.567,19.523,22.961,17.974,5.483,13.036,7.957,12.400,-4.601,-16.194,-9.238,0.321,-12.533,-3.514,16.518,9.457,-12.165
2019.07.22 14:03:50.151,37.753,45.170,12.358,17.976,20.453,15.837,7.529,10.651,7.685,10.817,-4.116,-15.572,-8.808,0.412,-11.470,0.167,16.383,9.536,-13.287
2019.07.22 14:03:50.155,37.933,44.198,13.609,16.802,18.654,14.216,10.070,8.801,8.261,9.470,-3.951,-14.906,-8.147,-0.510,-11.595,-1.409,17.525,9.577,-14.675
2019.07.22 14:03:50.159,40.464,43.854,15.293,16.866,18.410,13.750,12.505,8.296,9.109,9.275,-4.389,-13.515,-7.679,-1.291,-12.313,-6.377,19.654,9.769,-15.387
2019.07.22 14:03:50.163,43.363,44.572,17.324,18.600,19.676,14.737,14.437,9.312,9.701,10.662,-5.094,-11.190,-7.676,-0.587,-12.713,-11.051,22.255,10.105,-14.871
2019.07.22 14:03:50.167,45.103,46.511,19.592,21.634,21.724,16.796,15.889,11.181,10.035,13.110,-5.409,-8.531,-8.003,2.041,-12.344,-12.705,24.943,10.493,-13.327
2019.07.22 14:03:50.171,45.772,49.296,21.973,24.890,23.824,19.036,17.118,12.801,10.671,15.469,-4.901,-6.575,-8.115,5.789,-11.502,-11.216,27.584,10.940,-11.485
2019.07.22 14:03:50.175,46.754,52.076,24.322,27.105,25.763,20.562,18.225,13.373,12.288,16.827,-3.671,-6.023,-7.385,9.291,-10.859,-8.534,30.114,11.580,-10.030
2019.07.22 14:03:50.179,49.241,53.939,26.429,27.486,27.747,20.929,18.947,12.917,15.107,17.237,-2.211,-6.687,-5.564,11.696,-10.829,-6.717,32.313,12.496,-9.163
2019.07.22 14:03:50.183,52.884,54.432,28.027,26.133,29.820,20.284,18.827,12.177,18.625,17.682,-0.948,-7.626,-3.020,13.256,-11.211,-6.314,33.807,13.495,-8.622
2019.07.22 14:03:50.187,55.794,53.867,28.886,23.988,31.398,19.186,17.618,12.001,21.856,19.284,0.080,-7.871,-0.546,14.953,-11.371,-6.346,34.362,14.099,-8.046
2019.07.22 14:03:50.191,55.955,53.156,28.974,22.337,31.453,18.288,15.554,12.691,23.879,22.332,1.167,-7.186,1.146,17.491,-10.752,-5.681,34.196,13.833,-7.349
2019.07.22 14:03:50.195,52.879,53.227,28.549,22.108,29.270,18.028,13.261,13.800,24.290,25.886,2.557,-6.265,1.875,20.532,-9.299,-4.351,33.949,12.606,-6.744
2019.07.22 14:03:50.199,48.114,54.346,28.033,23.341,25.158,18.403,11.367,14.510,23.269,28.249,4.097,-6.175,2.005,22.823,-7.470,-3.566,34.240,10.840,-6.463
2019.07.22 14:03:50.203,44.155,55.827,27.717,25.132,20.456,18.881,10.138,14.274,21.284,28.005,5.249,-7.486,2.024,23.130,-5.904,-4.433,35.128,9.211,-6.449
2019.07.22 14:03:50.207,42.610,56.384,27.483,26.123,16.753,18.544,9.433,13.205,18.727,24.875,5.450,-9.733,2.030,21.195,-5.026,-6.663,35.954,8.185,-6.324
2019.07.22 14:03:50.211,43.132,54.968,26.821,25.294,14.888,16.524,8.986,11.943,15.767,19.843,4.524,-11.675,1.594,17.958,-4.874,-8.600,35.789,7.720,-5.688
2019.07.22 14:03:50.215,43.916,51.560,25.170,22.581,14.533,12.570,8.745,11.129,12.502,14.513,2.832,-12.149,0.140,14.866,-5.207,-8.693,34.175,7.392,-4.468
2019.07.22 14:03:50.219,43.304,47.328,22.373,18.922,14.629,7.354,8.982,10.939,9.184,10.207,1.020,-10.916,-2.468,12.860,-5.754,-7.120,31.560,6.831,-3.025
2019.07.22 14:03:50.223,41.107,43.958,18.856,15.657,14.275,2.185,10.081,11.019,6.274,7.405,-0.394,-8.842,-5.641,11.875,-6.406,-6.002,29.010,6.068,-1.900
2019.07.22 14:03:50.227,38.555,42.525,15.359,13.651,13.287,-1.828,12.203,10.868,4.211,5.810,-1.322,-7.283,-8.412,11.199,-7.282,-7.785,27.367,5.498,-1.411
2019.07.22 14:03:50.231,36.987,42.687,12.400,12.728,12.009,-4.601,15.092,10.287,3.069,4.857,-2.079,-7.133,-10.159,10.316,-8.656,-13.048,26.534,5.488,-1.415
2019.07.22 14:03:50.235,36.451,42.806,9.942,11.833,10.655,-7.211,18.184,9.533,2.410,4.192,-3.105,-8.244,-11.136,9.449,-10.800,-19.634,25.501,5.993,-1.416
2019.07.22 14:03:50.239,35.493,41.015,7.580,9.834,8.900,-11.080,20.906,9.026,1.513,3.791,-4.642,-9.636,-12.295,9.329,-13.783,-24.018,23.166,6.543,-0.940
2019.07.22 14:03:50.243,32.356,36.538,5.115,6.394,6.185,-16.723,22.955,8.870,-0.122,3.719,-6.577,-10.295,-14.477,10.410,-17.287,-23.961,19.323,6.629,0.132
2019.07.22 14:03:50.247,26.652,30.352,2.999,2.294,2.498,-23.019,24.357,8.614,-2.341,3.817,-8.481,-9.929,-17.588,12.271,-20.575,-20.295,15.002,6.153,1.487
2019.07.22 14:03:50.251,20.091,24.669,2.175,-1.060,-1.110,-27.706,25.346,7.492,-4.301,3.656,-9.803,-9.115,-20.431,13.759,-22.718,-16.330,11.852,5.537,2.595
2019.07.22 14:03:50.255,15.618,21.553,3.331,-2.579,-2.886,-28.853,26.178,5.008,-4.933,2.805,-10.092,-8.750,-21.437,13.830,-23.049,-15.264,10.994,5.376,3.026
2019.07.22 14:03:50.259,15.529,21.609,6.142,-2.200,-1.460,-26.257,27.017,1.420,-3.602,1.219,-9.198,-9.298,-19.770,12.385,-21.582,-17.672,12.243,5.910,2.652
2019.07.22 14:03:50.263,19.923,23.643,9.194,-0.856,3.118,-21.688,27.932,-2.258,-0.557,-0.577,-7.360,-10.432,-15.976,10.426,-19.090,-21.114,14.295,6.782,1.658
2019.07.22 14:03:50.267,26.598,25.547,10.784,0.229,9.239,-17.732,28.906,-4.781,3.150,-1.699,-5.140,-11.333,-11.672,9.377,-16.676,-22.165,15.708,7.273,0.407
2019.07.22 14:03:50.271,32.403,25.751,10.075,0.377,14.627,-16.076,29.830,-5.394,6.231,-1.390,-3.186,-11.375,-8.467,10.118,-15.082,-19.189,15.903,6.826,-0.704
2019.07.22 14:03:50.275,35.076,24.242,7.706,-0.210,17.627,-16.516,30.477,-4.243,7.854,0.525,-1.906,-10.609,-6.934,12.470,-14.224,-13.602,15.397,5.429,-1.342
2019.07.22 14:03:50.279,34.356,22.447,5.330,-0.791,17.965,-17.399,30.525,-2.211,8.001,3.504,-1.251,-9.662,-6.409,15.450,-13.353,-8.655,15.172,3.563,-1.304
2019.07.22 14:03:50.283,31.781,22.125,4.401,-0.775,16.558,-17.071,29.659,-0.340,7.313,6.567,-0.803,-9.170,-5.729,18.019,-11.771,-6.870,15.761,1.803,-0.581
2019.07.22 14:03:50.287,29.527,24.111,5.125,-0.168,14.661,-15.140,27.717,0.772,6.551,8.829,-0.148,-9.237,-4.310,19.674,-9.576,-8.280,16.824,0.452,0.588
2019.07.22 14:03:50.291,29.113,27.786,6.427,0.546,13.130,-12.579,24.771,1.171,6.095,9.942,0.710,-9.389,-2.698,20.480,-7.791,-10.842,17.539,-0.507,1.760
2019.07.22 14:03:50.295,30.732,31.590,6.934,0.905,12.247,-10.710,21.117,1.291,5.810,10.212,1.234,-9.042,-2.160,20.669,-7.685,-12.457,17.386,-1.163,2.463
2019.07.22 14:03:50.299,33.373,34.079,6.155,0.899,12.017,-10.033,17.177,1.494,5.310,10.320,0.699,-8.081,-3.631,20.298,-9.731,-12.693,16.603,-1.435,2.453
2019.07.22 14:03:50.303,35.459,34.739,4.861,0.927,12.416,-9.917,13.385,1.777,4.379,10.838,-1.210,-7.026,-6.869,19.291,-13.023,-12.719,15.906,-1.114,1.875
2019.07.22 14:03:50.307,35.580,33.999,4.319,1.366,13.281,-9.381,10.106,1.838,3.169,11.835,-4.021,-6.658,-10.484,17.782,-15.684,-13.663,15.713,-0.162,1.215
2019.07.22 14:03:50.311,33.037,32.586,5.011,2.127,14.029,-8.198,7.564,1.400,2.058,12.815,-6.664,-7.377,-12.851,16.323,-16.079,-15.099,15.601,1.058,1.017
2019.07.22 14:03:50.315,28.080,30.829,5.940,2.611,13.697,-7.290,5.777,0.483,1.301,13.015,-8.174,-8.836,-13.225,15.661,-13.981,-15.223,14.488,1.878,1.538
2019.07.22 14:03:50.319,21.813,28.506,5.193,2.099,11.522,-8.025,4.517,-0.588,0.801,11.888,-8.394,-10.130,-12.222,16.205,-10.807,-12.663,11.451,1.767,2.566
2019.07.22 14:03:50.323,15.799,25.282,1.397,0.264,7.703,-11.004,3.390,-1.432,0.219,9.473,-8.124,-10.385,-11.323,17.671,-8.674,-8.226,6.521,0.744,3.532
2019.07.22 14:03:50.327,11.454,21.307,-5.036,-2.602,3.621,-15.403,2.042,-1.891,-0.672,6.429,-8.504,-9.297,-11.761,19.227,-8.917,-4.804,0.811,-0.585,3.864
2019.07.22 14:03:50.331,9.502,17.394,-11.875,-5.791,1.146,-19.459,0.433,-2.122,-1.695,3.696,-10.072,-7.233,-13.595,20.079,-11.113,-5.202,-4.125,-1.428,3.352
2019.07.22 14:03:50.335,9.771,14.605,-16.335,-8.625,1.405,-21.719,-1.043,-2.441,-2.313,1.977,-12.199,-4.900,-15.644,19.986,-13.348,-9.608,-7.212,-1.358,2.296
2019.07.22 14:03:50.339,11.418,13.563,-16.768,-10.761,3.935,-22.029,-1.735,-3.074,-2.013,1.342,-13.413,-2.903,-16.307,19.282,-13.567,-14.956,-8.359,-0.552,1.316
2019.07.22 14:03:50.343,13.435,14.057,-13.565,-12.181,6.948,-21.459,-1.159,-4.012,-0.746,1.211,-12.443,-1.544,-14.710,18.398,-11.069,-16.988,-8.264,0.426,0.941
2019.07.22 14:03:50.347,15.080,15.273,-8.727,-12.936,8.578,-21.277,0.588,-5.058,0.945,0.727,-9.258,-0.918,-11.378,17.370,-7.130,-13.569,-7.747,1.109,1.232
2019.07.22 14:03:50.351,16.009,16.447,-4.500,-12.932,8.185,-21.851,2.759,-5.989,2.222,-0.671,-5.318,-1.114,-8.007,15.792,-4.308,-6.621,-7.193,1.452,1.693
2019.07.22 14:03:50.355,16.170,17.421,-2.091,-11.959,6.685,-22.382,4.344,-6.665,2.498,-2.844,-2.794,-2.231,-6.482,13.289,-4.918,-1.022,-6.467,1.753,1.543
2019.07.22 14:03:50.359,15.699,18.655,-1.305,-9.916,5.703,-21.633,4.705,-7.047,1.808,-4.977,-3.246,-4.186,-7.785,10.051,-9.648,-1.183,-5.263,2.291,0.212
2019.07.22 14:03:50.363,14.969,20.714,-1.134,-7.038,6.239,-19.001,4.011,-7.151,0.763,-6.059,-6.652,-6.538,-11.450,6.875,-17.179,-7.892,-3.487,3.025,-2.239
2019.07.22 14:03:50.367,14.674,23.654,-0.679,-3.921,7.967,-15.042,3.138,-7.056,0.097,-5.559,-11.425,-8.588,-15.891,4.590,-24.954,-17.805,-1.377,3.612,-5.052
2019.07.22 14:03:50.371,15.667,26.826,0.313,-1.323,9.668,-11.093,3.056,-6.984,0.162,-3.875,-15.404,-9.752,-19.346,3.308,-30.563,-25.900,0.663,3.702,-7.134
2019.07.22 14:03:50.375,18.448,29.243,1.546,0.123,10.374,-8.368,4.097,-7.319,0.696,-2.236,-17.115,-9.959,-20.866,2.185,-32.903,-28.935,2.288,3.214,-7.650
2019.07.22 14:03:50.379,22.610,30.224,2.615,0.147,10.161,-7.287,5.629,-8.465,1.002,-2.070,-16.504,-9.701,-20.761,-0.027,-32.509,-27.329,3.282,2.347,-6.505
2019.07.22 14:03:50.383,26.729,29.803,3.315,-1.055,9.941,-7.502,6.373,-10.528,0.367,-4.177,-14.732,-9.670,-20.274,-3.987,-31.021,-24.247,3.512,1.357,-4.406
2019.07.22 14:03:50.387,29.014,28.624,3.614,-2.844,10.457,-8.410,5.173,-13.057,-1.552,-8.204,-13.270,-10.222,-20.716,-9.128,-30.169,-22.909,2.928,0.357,-2.454
2019.07.22 14:03:50.391,28.396,27.446,3.491,-4.298,11.452,-9.613,1.712,-15.083,-4.589,-12.779,-12.950,-11.101,-22.613,-13.887,-30.876,-24.343,1.699,-0.659,-1.510
2019.07.22 14:03:50.395,25.312,26.684,2.911,-4.506,11.805,-10.954,-3.280,-15.560,-8.148,-16.249,-13.569,-11.651,-25.348,-16.685,-32.861,-27.154,0.357,-1.604,-1.740
2019.07.22 14:03:50.399,21.546,26.311,2.028,-2.961,10.564,-12.227,-8.430,-13.980,-11.393,-17.578,-14.198,-11.326,-27.501,-16.905,-34.862,-29.108,-0.306,-2.163,-2.591
2019.07.22 14:03:50.403,19.135,26.127,1.349,0.128,7.982,-13.023,-12.427,-10.750,-13.459,-16.864,-13.877,-10.105,-27.643,-15.162,-35.291,-28.928,0.370,-1.937,-3.218
2019.07.22 14:03:50.407,19.090,26.072,1.572,3.816,5.600,-12.946,-14.585,-7.050,-13.660,-15.152,-12.209,-8.466,-25.099,-12.727,-33.015,-26.866,2.438,-0.800,-3.024
2019.07.22 14:03:50.411,20.833,26.251,3.097,6.826,5.184,-12.048,-14.970,-4.209,-11.747,-13.709,-9.517,-6.998,-20.273,-10.599,-27.905,-23.884,5.171,0.859,-1.992
2019.07.22 14:03:50.415,22.741,26.651,5.572,8.194,7.328,-11.005,-14.131,-3.005,-8.143,-13.242,-6.561,-5.985,-14.396,-8.979,-20.945,-20.548,7.417,2.274,-0.588
2019.07.22 14:03:50.419,23.310,26.850,7.899,7.779,10.836,-10.772,-12.716,-3.348,-3.973,-13.580,-4.089,-5.314,-8.931,-7.478,-13.850,-16.777,8.265,2.780,0.609
2019.07.22 14:03:50.423,22.052,26.062,8.810,6.274,13.410,-11.928,-11.246,-4.526,-0.759,-13.990,-2.516,-4.748,-4.995,-5.772,-8.362,-12.594,7.563,2.284,1.272
2019.07.22 14:03:50.427,19.500,23.610,7.637,4.693,13.150,-14.242,-10.094,-5.777,0.190,-13.829,-1.882,-4.259,-3.067,-4.080,-5.550,-8.904,5.921,1.322,1.420
2019.07.22 14:03:50.431,16.480,19.504,4.717,3.682,9.752,-16.836,-9.575,-6.740,-1.607,-13.046,-2.015,-4.097,-3.019,-3.074,-5.438,-7.290,4.218,0.661,1.243
2019.07.22 14:03:50.435,13.393,14.648,1.134,3.151,4.547,-18.842,-9.938,-7.480,-5.539,-12.175,-2.718,-4.507,-4.335,-3.316,-7.137,-8.750,3.012,0.745,0.846
2019.07.22 14:03:50.439,10.116,10.427,-2.011,2.473,-0.527,-19.995,-11.250,-8.148,-10.198,-11.876,-3.860,-5.380,-6.338,-4.767,-9.383,-12.471,2.293,1.428,0.151
2019.07.22 14:03:50.443,6.506,7.903,-4.249,1.054,-4.187,-20.701,-13.268,-8.665,-14.073,-12.426,-5.317,-6.209,-8.396,-6.777,-11.195,-15.888,1.681,2.176,-0.965
2019.07.22 14:03:50.447,2.901,7.170,-5.838,-1.203,-6.376,-21.565,-15.470,-8.729,-16.254,-13.559,-6.888,-6.442,-10.098,-8.551,-12.299,-16.280,0.818,2.532,-2.451
2019.07.22 14:03:50.451,0.039,7.343,-7.317,-3.871,-7.871,-22.827,-17.267,-8.153,-16.746,-14.747,-8.285,-5.983,-11.410,-9.691,-13.136,-12.844,-0.413,2.419,-3.988
2019.07.22 14:03:50.455,-1.579,7.228,-8.928,-6.378,-9.420,-24.192,-18.288,-7.184,-16.258,-15.661,-9.229,-5.371,-12.689,-10.361,-14.478,-7.589,-1.953,2.059,-5.124
2019.07.22 14:03:50.459,-2.229,6.202,-10.372,-8.381,-11.136,-25.151,-18.540,-6.432,-15.670,-16.395,-9.607,-5.424,-14.450,-10.993,-16.883,-4.223,-3.753,1.646,-5.537
2019.07.22 14:03:50.463,-2.804,4.680,-11.064,-9.795,-12.552,-25.426,-18.322,-6.383,-15.509,-17.260,-9.538,-6.556,-16.942,-11.815,-20.277,-5.665,-5.763,1.131,-5.220
2019.07.22 14:03:50.467,-3.935,3.854,-10.610,-10.489,-13.105,-25.111,-17.968,-6.875,-15.727,-18.333,-9.283,-8.294,-19.757,-12.599,-23.867,-11.926,-7.716,0.342,-4.445
2019.07.22 14:03:50.471,-5.162,4.881,-9.091,-10.040,-12.543,-24.374,-17.599,-7.024,-15.819,-19.163,-9.046,-9.419,-21.827,-12.810,-26.416,-19.817,-8.954,-0.679,-3.554
2019.07.22 14:03:50.475,-4.979,8.110,-6.954,-7.898,-10.963,-23.085,-17.078,-5.791,-15.158,-18.931,-8.791,-8.694,-21.906,-11.973,-26.768,-24.740,-8.632,-1.514,-2.757
2019.07.22 14:03:50.479,-1.932,12.840,-4.631,-3.949,-8.580,-20.785,-16.182,-2.823,-13.347,-16.983,-8.256,-5.700,-19.330,-9.972,-24.378,-23.337,-6.298,-1.600,-2.085
2019.07.22 14:03:50.483,4.012,17.730,-2.247,0.992,-5.579,-17.137,-14.875,1.067,-10.455,-13.373,-7.170,-1.181,-14.542,-7.072,-19.614,-15.350,-2.462,-0.719,-1.510
2019.07.22 14:03:50.487,10.974,21.531,0.350,5.312,-2.215,-12.478,-13.461,4.239,-7.060,-8.991,-5.526,3.349,-8.998,-3.748,-13.661,-3.639,1.405,0.687,-1.074
2019.07.22 14:03:50.491,16.094,23.645,3.311,7.419,1.003,-7.955,-12.511,5.230,-4.084,-5.173,-3.700,6.458,-4.441,-0.518,-8.063,7.468,3.594,1.727,-0.901
2019.07.22 14:03:50.495,17.348,24.216,6.513,6.773,3.363,-4.993,-12.594,3.736,-2.441,-3.049,-2.263,7.551,-2.008,2.116,-4.103,14.375,3.206,1.699,-1.069
2019.07.22 14:03:50.499,14.907,23.837,9.532,4.348,4.325,-4.436,-13.973,0.833,-2.628,-3.048,-1.621,7.021,-1.732,3.654,-2.324,15.735,0.784,0.672,-1.475
2019.07.22 14:03:50.503,11.023,23.153,11.863,2.105,3.921,-5.976,-16.460,-1.746,-4.455,-4.834,-1.714,5.793,-2.750,3.659,-2.425,12.613,-1.986,-0.493,-1.842
2019.07.22 14:03:50.507,8.472,22.615,13.181,1.776,2.814,-8.324,-19.502,-2.786,-7.115,-7.624,-2.049,4.621,-4.008,1.921,-3.570,7.465,-3.353,-0.726,-1.893
2019.07.22 14:03:50.511,8.690,22.428,13.449,3.796,1.849,-10.016,-22.448,-2.355,-9.621,-10.614,-2.072,3.656,-4.919,-1.387,-4.907,2.653,-2.623,0.466,-1.567
2019.07.22 14:03:50.515,10.936,22.570,12.812,7.113,1.411,-10.272,-24.837,-1.621,-11.361,-13.240,-1.612,2.523,-5.548,-5.701,-5.990,-0.674,-0.552,2.646,-1.093
2019.07.22 14:03:50.519,13.005,22.783,11.434,9.977,1.134,-9.330,-26.551,-1.872,-12.422,-15.222,-1.065,0.791,-6.275,-10.282,-6.871,-2.810,1.224,4.767,-0.846
2019.07.22 14:03:50.523,12.860,22.570,9.403,11.093,0.206,-8.116,-27.785,-3.528,-13.423,-16.487,-1.139,-1.568,-7.313,-14.510,-7.857,-4.832,1.274,5.922,-1.084
2019.07.22 14:03:50.527,9.945,21.343,6.782,10.323,-1.927,-7.549,-28.865,-5.866,-14.970,-17.142,-2.322,-4.073,-8.487,-18.091,-9.149,-7.547,-0.814,5.908,-1.763
2019.07.22 14:03:50.531,5.299,18.724,3.702,8.504,-5.053,-8.013,-30.045,-7.656,-17.130,-17.489,-4.466,-6.031,-9.423,-21.071,-10.609,-10.760,-4.382,5.228,-2.571
2019.07.22 14:03:50.535,0.602,14.855,0.402,6.683,-8.301,-9.283,-31.375,-8.159,-19.330,-17.993,-6.802,-7.018,-9.902,-23.691,-11.806,-13.379,-8.308,4.581,-3.143
2019.07.22 14:03:50.539,-2.987,10.458,-2.818,5.406,-10.779,-10.810,-32.716,-7.676,-20.772,-19.104,-8.397,-7.179,-10.038,-26.210,-12.273,-14.274,-11.720,4.323,-3.303
2019.07.22 14:03:50.543,-5.316,6.545,-5.654,4.601,-12.211,-12.082,-33.833,-7.223,-21.033,-20.991,-8.723,-7.121,-10.124,-28.736,-11.780,-13.245,-14.295,4.318,-3.152
2019.07.22 14:03:50.547,-6.835,3.915,-7.820,3.992,-13.042,-12.796,-34.533,-7.599,-20.361,-23.358,-7.955,-7.463,-10.311,-31.107,-10.447,-11.286,-16.061,4.241,-2.958
2019.07.22 14:03:50.551,-7.841,2.808,-9.042,3.591,-13.926,-12.851,-34.748,-8.633,-19.421,-25.525,-6.793,-8.345,-10.451,-32.831,-8.672,-9.839,-17.016,3.971,-2.948
2019.07.22 14:03:50.555,-8.074,2.949,-9.126,3.778,-15.066,-12.271,-34.562,-9.217,-18.706,-26.749,-5.971,-9.245,-10.241,-33.191,-6.938,-9.580,-16.985,3.711,-3.162
2019.07.22 14:03:50.559,-6.995,3.905,-8.115,4.929,-15.969,-11.173,-34.177,-8.155,-18.131,-26.624,-5.803,-9.267,-9.541,-31.589,-5.631,-9.775,-15.825,3.732,-3.448
2019.07.22 14:03:50.563,-4.442,5.436,-6.451,6.948,-15.876,-9.774,-33.859,-5.168,-17.171,-25.301,-6.065,-7.742,-8.545,-28.070,-4.950,-8.857,-13.749,4.019,-3.578
2019.07.22 14:03:50.567,-1.068,7.499,-4.963,9.147,-14.515,-8.351,-33.877,-1.267,-15.460,-23.422,-6.210,-4.756,-7.636,-23.668,-4.877,-5.923,-11.433,4.184,-3.367
2019.07.22 14:03:50.571,1.778,9.922,-4.585,10.607,-12.574,-7.160,-34.451,1.798,-13.304,-21.838,-5.725,-1.223,-7.052,-20.220,-5.207,-1.893,-9.754,3.748,-2.743
2019.07.22 14:03:50.575,2.680,12.093,-5.903,10.751,-11.461,-6.365,-35.696,2.639,-11.639,-21.276,-4.394,1.596,-6.666,-19.515,-5.594,0.792,-9.341,2.551,-1.734
2019.07.22 14:03:50.579,0.843,13.071,-8.808,9.689,-12.483,-6.040,-37.578,1.083,-11.385,-22.108,-2.350,2.859,-6.103,-22.198,-5.662,-0.047,-10.265,0.920,-0.449
2019.07.22 14:03:50.583,-3.522,12.164,-12.494,8.108,-15.986,-6.211,-39.905,-1.805,-12.699,-24.259,0.001,2.668,-5.113,-27.141,-5.155,-4.362,-12.043,-0.554,0.926
2019.07.22 14:03:50.587,-9.274,9.593,-15.856,6.818,-21.056,-6.832,-42.371,-4.488,-14.752,-27.237,2.101,1.969,-3.859,-31.863,-4.071,-9.450,-13.945,-1.450,2.124
2019.07.22 14:03:50.591,-14.772,6.642,-18.029,6.295,-25.953,-7.695,-44.643,-5.922,-16.279,-30.254,3.380,1.857,-2.875,-33.891,-2.698,-11.675,-15.352,-1.784,2.838
2019.07.22 14:03:50.595,-18.463,5.014,-18.758,6.489,-28.990,-8.372,-46.461,-6.039,-16.503,-32.459,3.437,2.756,-2.697,-32.251,-1.488,-9.255,-15.995,-1.909,2.834
2019.07.22 14:03:50.599,-19.465,5.736,-18.370,6.922,-29.323,-8.356,-47.705,-5.508,-15.701,-33.256,2.265,4.061,-3.463,-28.080,-0.834,-3.931,-16.001,-2.166,2.075
2019.07.22 14:03:50.603,-17.938,8.364,-17.431,6.932,-27.254,-7.427,-48.384,-5.099,-14.951,-32.617,0.368,4.550,-4.814,-23.886,-0.867,-0.023,-15.801,-2.601,0.790
2019.07.22 14:03:50.607,-15.075,11.110,-16.378,5.892,-23.971,-6.000,-48.566,-5.181,-15.237,-31.171,-1.381,3.284,-6.166,-21.950,-1.433,-1.343,-15.971,-2.981,-0.604
2019.07.22 14:03:50.611,-12.606,11.881,-15.381,3.394,-20.960,-5.125,-48.309,-5.715,-16.659,-29.978,-2.186,0.356,-7.123,-22.963,-2.261,-8.241,-17.013,-3.061,-1.683
2019.07.22 14:03:50.615,-11.975,9.548,-14.488,-0.601,-19.410,-5.993,-47.630,-6.604,-18.388,-30.035,-1.834,-3.091,-7.729,-25.850,-3.220,-17.103,-19.132,-2.814,-2.232
2019.07.22 14:03:50.619,-13.617,4.571,-13.882,-5.657,-19.842,-9.202,-46.574,-7.994,-19.447,-31.785,-0.931,-5.613,-8.399,-28.836,-4.504,-22.878,-22.096,-2.436,-2.345
2019.07.22 14:03:50.623,-16.798,-1.427,-13.966,-10.921,-22.052,-14.286,-45.309,-10.200,-19.663,-34.934,-0.618,-6.439,-9.652,-30.885,-6.598,-22.803,-25.304,-2.132,-2.366
2019.07.22 14:03:50.627,-20.150,-6.773,-15.185,-15.428,-25.331,-19.903,-44.197,-13.321,-20.018,-38.684,-1.911,-5.974,-11.863,-32.398,-10.020,-18.523,-28.074,-1.920,-2.688
2019.07.22 14:03:50.631,-22.557,-10.699,-17.686,-18.542,-28.832,-24.612,-43.719,-16.928,-22.010,-42.234,-5.063,-5.451,-15.159,-34.672,-14.991,-14.921,-30.013,-1.655,-3.534
2019.07.22 14:03:50.635,-23.761,-13.491,-21.079,-20.276,-31.915,-27.683,-44.277,-20.150,-26.492,-45.185,-9.400,-6.022,-19.417,-38.613,-21.192,-16.510,-31.192,-1.217,-4.830
2019.07.22 14:03:50.639,-24.259,-15.820,-24.518,-21.221,-34.317,-29.366,-45.923,-22.173,-32.837,-47.609,-13.719,-7.965,-24.227,-43.756,-27.756,-24.098,-31.997,-0.681,-6.247
2019.07.22 14:03:50.643,-24.647,-17.885,-27.083,-22.068,-36.075,-30.431,-48.206,-22.768,-39.093,-49.769,-16.967,-10.570,-28.837,-48.391,-33.497,-34.184,-32.747,-0.273,-7.359
2019.07.22 14:03:50.647,-24.988,-19.096,-28.237,-23.056,-37.281,-31.373,-50.248,-22.414,-43.050,-51.729,-18.714,-12.716,-32.201,-50.665,-37.265,-41.469,-33.396,-0.157,-7.837
2019.07.22 14:03:50.651,-24.781,-18.527,-28.084,-23.742,-37.876,-31.929,-51.084,-21.910,-43.468,-53.161,-19.138,-13.639,-33.285,-49.788,-38.294,-42.471,-33.564,-0.282,-7.559
2019.07.22 14:03:50.655,-23.522,-15.745,-27.254,-23.308,-37.646,-31.291,-50.118,-21.749,-40.656,-53.480,-18.621,-13.286,-31.554,-46.406,-36.389,-37.544,-32.890,-0.463,-6.600
2019.07.22 14:03:50.659,-21.341,-11.307,-26.488,-21.198,-36.425,-28.830,-47.440,-21.771,-36.074,-52.193,-17.355,-12.067,-27.345,-41.911,-31.934,-29.979,-31.398,-0.621,-5.123
2019.07.22 14:03:50.663,-19.057,-6.542,-26.187,-17.607,-34.317,-24.722,-43.811,-21.346,-31.344,-49.235,-15.272,-10.319,-21.798,-37.330,-25.725,-23.175,-29.545,-0.945,-3.284
2019.07.22 14:03:50.667,-17.547,-2.784,-26.187,-13.472,-31.718,-19.988,-40.281,-19.961,-27.426,-45.083,-12.324,-8.030,-16.317,-32.722,-18.741,-18.253,-27.887,-1.752,-1.213
2019.07.22 14:03:50.671,-16.953,-0.663,-25.892,-9.952,-29.096,-15.935,-37.655,-17.728,-24.443,-40.621,-8.799,-5.073,-11.885,-27.558,-11.933,-13.920,-26.633,-3.139,0.924
2019.07.22 14:03:50.675,-16.487,0.054,-24.666,-7.781,-26.694,-13.443,-36.113,-15.409,-22.105,-36.844,-5.363,-1.701,-8.700,-21.704,-6.070,-8.401,-25.493,-4.734,2.848
2019.07.22 14:03:50.679,-15.092,0.044,-22.246,-6.966,-24.452,-12.626,-35.233,-13.936,-20.246,-34.536,-2.758,1.209,-6.370,-16.104,-1.674,-1.632,-23.977,-5.833,4.185
2019.07.22 14:03:50.683,-12.482,-0.159,-18.937,-6.982,-22.216,-13.023,-34.384,-13.791,-18.995,-34.019,-1.395,2.507,-4.479,-12.506,1.008,4.206,-21.914,-5.889,4.608
2019.07.22 14:03:50.687,-9.629,-0.457,-15.492,-7.280,-20.083,-14.068,-33.228,-14.728,-18.533,-35.041,-1.171,1.511,-3.042,-12.350,2.001,6.233,-19.736,-4.983,4.035
2019.07.22 14:03:50.691,-8.186,-1.038,-12.762,-7.680,-18.519,-15.419,-31.994,-16.012,-18.741,-36.868,-1.648,-1.432,-2.488,-15.651,1.558,3.194,-18.254,-3.849,2.743
2019.07.22 14:03:50.695,-9.194,-2.031,-11.352,-8.379,-18.087,-16.949,-31.314,-16.965,-19.141,-38.579,-2.423,-5.044,-3.208,-20.766,0.087,-3.347,-18.072,-3.375,1.281
2019.07.22 14:03:50.699,-12.103,-3.317,-11.443,-9.639,-18.943,-18.564,-31.751,-17.381,-19.206,-39.477,-3.363,-7.875,-5.091,-25.285,-1.964,-9.898,-19.116,-3.949,0.219
2019.07.22 14:03:50.703,-14.988,-4.642,-12.851,-11.439,-20.549,-20.097,-33.342,-17.499,-18.782,-39.426,-4.557,-9.174,-7.457,-27.447,-4.216,-13.303,-20.675,-5.162,-0.138
2019.07.22 14:03:50.707,-15.906,-5.876,-15.220,-13.398,-21.909,-21.423,-35.502,-17.632,-18.246,-38.889,-6.060,-9.260,-9.475,-27.106,-6.422,-12.695,-21.949,-6.128,0.119
2019.07.22 14:03:50.711,-14.389,-7.110,-18.179,-15.007,-22.264,-22.618,-37.357,-17.799,-18.254,-38.596,-7.700,-9.137,-10.716,-25.616,-8.470,-9.795,-22.656,-6.187,0.605
2019.07.22 14:03:50.715,-11.917,-8.513,-21.382,-15.981,-21.722,-23.946,-38.286,-17.711,-19.271,-39.054,-9.143,-9.708,-11.401,-24.772,-10.327,-7.502,-23.220,-5.414,0.911
2019.07.22 14:03:50.719,-10.916,-10.087,-24.440,-16.466,-21.319,-25.630,-38.277,-17.123,-21.253,-40.218,-10.120,-11.179,-12.153,-25.604,-11.995,-7.965,-24.371,-4.532,0.834
2019.07.22 14:03:50.723,-13.006,-11.598,-26.895,-16.961,-22.355,-27.615,-37.856,-16.238,-23.720,-41.576,-10.621,-13.073,-13.475,-27.847,-13.483,-11.446,-26.498,-4.291,0.452
2019.07.22 14:03:50.727,-17.781,-12.748,-28.297,-18.025,-25.437,-29.587,-37.633,-15.766,-26.104,-42.592,-10.838,-14.754,-15.366,-30.351,-14.790,-16.574,-29.264,-4.842,-0.010
2019.07.22 14:03:50.731,-23.033,-13.434,-28.390,-19.954,-29.925,-31.251,-37.788,-16.513,-28.081,-43.147,-10.943,-15.967,-17.351,-32.014,-15.863,-21.490,-31.804,-5.609,-0.370
2019.07.22 14:03:50.735,-26.222,-13.811,-27.261,-22.597,-34.200,-32.610,-37.884,-18.764,-29.614,-43.602,-10.882,-16.957,-18.814,-32.486,-16.537,-24.933,-33.307,-5.767,-0.596
2019.07.22 14:03:50.739,-26.100,-14.078,-25.327,-25.383,-36.596,-33.926,-37.144,-21.912,-30.730,-44.397,-10.414,-18.100,-19.340,-32.167,-16.528,-26.582,-33.531,-4.931,-0.760
2019.07.22 14:03:50.743,-23.354,-14.203,-23.136,-27.538,-36.351,-35.362,-34.997,-24.665,-31.283,-45.507,-9.359,-19.415,-18.815,-31.598,-15.524,-26.672,-32.848,-3.480,-0.906
2019.07.22 14:03:50.747,-19.914,-13.868,-21.111,-28.405,-33.932,-36.611,-31.541,-25.733,-30.948,-46.233,-7.826,-20.373,-17.324,-30.796,-13.402,-25.413,-31.843,-2.285,-0.959
2019.07.22 14:03:50.751,-17.571,-12.760,-19.423,-27.737,-30.577,-36.936,-27.584,-24.562,-29.486,-45.565,-6.219,-20.190,-15.040,-29.116,-10.417,-22.730,-30.844,-2.069,-0.747
2019.07.22 14:03:50.755,-16.934,-10.962,-18.070,-25.843,-27.458,-35.686,-24.239,-21.647,-27.051,-42.918,-4.979,-18.378,-12.264,-25.759,-7.218,-18.485,-29.776,-2.934,-0.120
2019.07.22 14:03:50.759,-17.403,-9.067,-17.096,-23.472,-25.097,-32.896,-22.334,-18.217,-24.256,-38.679,-4.276,-15.135,-9.515,-20.559,-4.593,-12.948,-28.418,-4.409,0.942
2019.07.22 14:03:50.763,-17.960,-7.846,-16.735,-21.460,-23.384,-29.451,-21.994,-15.539,-21.904,-34.113,-3.905,-11.323,-7.463,-14.407,-3.076,-7.104,-26.804,-5.919,2.318
2019.07.22 14:03:50.767,-18.060,-7.672,-17.324,-20.313,-22.052,-26.582,-22.627,-14.269,-20.554,-30.636,-3.456,-8.038,-6.634,-8.949,-2.659,-2.534,-25.359,-7.243,3.818
2019.07.22 14:03:50.771,-17.956,-8.202,-19.005,-19.975,-21.122,-25.055,-23.295,-14.240,-20.243,-28.951,-2.624,-6.083,-7.065,-5.690,-2.845,-0.812,-24.651,-8.576,5.289
2019.07.22 14:03:50.775,-18.325,-8.613,-21.423,-19.961,-20.922,-24.706,-23.202,-14.733,-20.562,-28.662,-1.393,-5.627,-8.221,-5.062,-3.010,-2.672,-24.947,-10.186,6.662
2019.07.22 14:03:50.779,-19.595,-8.248,-23.697,-19.784,-21.695,-24.712,-22.019,-14.977,-21.018,-28.631,0.023,-6.186,-9.330,-6.100,-2.836,-7.349,-25.956,-12.019,7.940
2019.07.22 14:03:50.783,-21.508,-7.159,-24.761,-19.368,-23.180,-24.375,-19.904,-14.538,-21.389,-27.802,1.390,-6.880,-9.916,-6.944,-2.462,-12.580,-26.965,-13.626,9.151
2019.07.22 14:03:50.787,-23.174,-6.055,-23.936,-19.126,-24.569,-23.741,-17.276,-13.418,-21.817,-25.875,2.627,-6.819,-10.101,-5.885,-2.273,-15.450,-27.298,-14.492,10.303
2019.07.22 14:03:50.791,-23.513,-5.682,-21.386,-19.616,-24.918,-23.511,-14.559,-11.890,-22.564,-23.380,3.763,-5.486,-10.418,-2.321,-2.498,-13.863,-26.724,-14.469,11.361
2019.07.22 14:03:50.795,-21.794,-6.116,-18.137,-21.020,-23.746,-24.298,-12.043,-10.266,-23.665,-21.173,4.769,-2.984,-11.271,2.950,-2.984,-7.857,-25.567,-13.923,12.230
2019.07.22 14:03:50.799,-18.035,-6.607,-15.606,-22.867,-21.375,-25.923,-9.931,-8.768,-24.769,-19.776,5.441,-0.044,-12.513,8.236,-3.354,0.111,-24.457,-13.459,12.752
2019.07.22 14:03:50.803,-13.147,-6.146,-14.879,-24.252,-18.783,-27.386,-8.440,-7.518,-25.315,-19.079,5.463,2.274,-13.537,11.890,-3.409,6.297,-23.952,-13.450,12.758
2019.07.22 14:03:50.807,-8.737,-4.342,-16.177,-24.442,-17.072,-27.637,-7.826,-6.580,-24.941,-18.575,4.636,3.095,-13.797,13.122,-3.379,7.726,-24.288,-13.767,12.180
2019.07.22 14:03:50.811,-6.569,-1.898,-18.826,-23.417,-16.915,-26.488,-8.260,-5.966,-23.817,-17.864,3.073,2.220,-13.328,12.209,-3.746,3.941,-25.383,-13.930,11.163
2019.07.22 14:03:50.815,-7.767,-0.233,-21.733,-21.931,-18.283,-24.892,-9.618,-5.614,-22.622,-17.013,1.209,0.271,-12.757,10.114,-4.723,-2.736,-26.979,-13.542,10.088
2019.07.22 14:03:50.819,-12.119,-0.499,-24.046,-21.018,-20.574,-24.268,-11.376,-5.407,-22.157,-16.510,-0.416,-1.669,-12.785,7.828,-5.860,-8.685,-28.785,-12.624,9.416
2019.07.22 14:03:50.823,-17.947,-2.710,-25.545,-21.291,-22.985,-25.383,-12.721,-5.265,-22.841,-16.880,-1.418,-2.739,-13.572,5.888,-6.203,-11.293,-30.513,-11.581,9.412
2019.07.22 14:03:50.827,-22.824,-5.661,-26.543,-22.547,-24.880,-27.710,-12.902,-5.265,-24.423,-18.294,-1.744,-2.867,-14.604,4.320,-5.001,-10.533,-31.852,-10.836,9.934
2019.07.22 14:03:50.831,-24.857,-7.721,-27.399,-23.963,-26.002,-29.797,-11.605,-5.679,-26.123,-20.433,-1.639,-2.820,-15.179,2.913,-2.459,-8.756,-32.486,-10.457,10.449
2019.07.22 14:03:50.835,-23.802,-7.921,-28.057,-24.711,-26.463,-30.391,-9.140,-6.839,-27.103,-22.667,-1.509,-3.658,-15.121,1.552,0.134,-8.895,-32.196,-10.103,10.332
2019.07.22 14:03:50.839,-21.171,-6.555,-27.987,-24.533,-26.563,-29.397,-6.263,-8.907,-26.942,-24.360,-1.736,-5.962,-15.035,0.355,1.126,-12.399,-30.980,-9.311,9.263
2019.07.22 14:03:50.843,-19.166,-4.871,-26.588,-23.843,-26.543,-27.909,-3.738,-11.669,-25.804,-25.110,-2.556,-9.382,-15.831,-0.421,-0.346,-18.356,-29.086,-7.903,7.446
2019.07.22 14:03:50.847,-19.086,-4.132,-23.747,-23.311,-26.371,-27.286,-1.887,-14.525,-24.204,-24.826,-3.961,-12.824,-17.842,-0.580,-3.639,-24.319,-26.908,-6.146,5.493
2019.07.22 14:03:50.851,-20.330,-4.737,-20.088,-23.266,-25.682,-28.014,-0.433,-16.714,-22.571,-23.670,-5.647,-15.142,-20.307,-0.104,-6.912,-28.101,-24.791,-4.582,4.040
2019.07.22 14:03:50.855,-20.816,-6.018,-16.662,-23.379,-23.945,-29.275,1.241,-17.640,-20.951,-21.961,-7.057,-15.826,-21.731,0.863,-8.315,-29.130,-22.872,-3.647,3.376
2019.07.22 14:03:50.859,-18.561,-6.781,-14.264,-22.865,-20.828,-29.540,3.593,-17.122,-19.066,-20.061,-7.570,-15.215,-20.929,2.111,-7.232,-28.447,-21.058,-3.411,3.357
2019.07.22 14:03:50.863,-13.320,-6.153,-12.902,-21.047,-16.550,-27.699,6.494,-15.432,-16.675,-18.248,-6.820,-14.133,-17.976,3.431,-4.667,-27.514,-19.138,-3.606,3.613
2019.07.22 14:03:50.867,-7.043,-4.126,-11.844,-17.876,-11.987,-23.868,9.192,-13.129,-13.932,-16.616,-4.989,-13.280,-14.287,4.605,-2.500,-26.946,-16.985,-3.881,3.869
2019.07.22 14:03:50.871,-2.731,-1.509,-10.254,-14.062,-8.379,-19.283,10.694,-10.811,-11.460,-15.061,-2.829,-12.851,-11.739,5.401,-2.200,-26.202,-14.695,-4.064,4.098
2019.07.22 14:03:50.875,-2.472,0.608,-7.959,-10.736,-6.736,-15.463,10.346,-8.942,-10.034,-13.425,-1.328,-12.624,-11.472,5.611,-3.939,-24.415,-12.616,-4.223,4.410
2019.07.22 14:03:50.879,-6.068,1.443,-5.727,-8.869,-7.302,-13.307,8.228,-7.783,-10.111,-11.711,-1.169,-12.349,-13.261,5.149,-6.721,-21.577,-11.209,-4.530,4.826
2019.07.22 14:03:50.883,-11.223,0.829,-4.797,-8.820,-9.432,-12.761,5.149,-7.413,-11.533,-10.218,-2.306,-12.074,-15.870,4.115,-9.302,-18.984,-10.818,-5.080,5.181
2019.07.22 14:03:50.887,-15.140,-0.855,-5.979,-10.228,-11.994,-13.164,2.229,-7.751,-13.624,-9.442,-3.982,-12.100,-18.031,2.774,-11.115,-18.484,-11.468,-5.822,5.257
2019.07.22 14:03:50.891,-16.340,-2.971,-9.010,-12.287,-14.046,-13.859,0.355,-8.563,-15.608,-9.748,-5.203,-12.656,-19.250,1.425,-12.456,-21.041,-12.813,-6.624,5.029
2019.07.22 14:03:50.895,-15.402,-4.915,-12.678,-14.185,-15.349,-14.557,-0.191,-9.483,-17.048,-11.048,-5.377,-13.570,-19.859,0.302,-13.897,-25.723,-14.289,-7.374,4.762
2019.07.22 14:03:50.899,-14.192,-6.303,-15.632,-15.469,-16.348,-15.269,0.221,-10.113,-18.007,-12.732,-4.683,-14.263,-20.416,-0.447,-15.524,-29.950,-15.399,-7.998,4.822
2019.07.22 14:03:50.903,-14.284,-7.022,-17.264,-16.143,-17.682,-16.007,0.827,-10.166,-18.860,-13.948,-3.916,-14.067,-21.074,-0.664,-16.720,-30.924,-15.961,-8.395,5.340
2019.07.22 14:03:50.907,-15.828,-7.182,-17.963,-16.494,-19.588,-16.600,0.844,-9.604,-19.931,-14.064,-3.931,-12.648,-21.484,-0.123,-16.686,-27.341,-16.127,-8.393,6.032
2019.07.22 14:03:50.911,-17.663,-6.995,-18.561,-16.774,-21.660,-16.776,-0.197,-8.644,-21.255,-12.989,-5.053,-10.219,-21.258,1.399,-15.199,-20.249,-16.157,-7.806,6.364
2019.07.22 14:03:50.915,-18.459,-6.616,-19.440,-16.969,-23.134,-16.376,-2.270,-7.647,-22.588,-11.145,-6.882,-7.429,-20.496,3.914,-12.933,-12.517,-16.102,-6.590,5.963
2019.07.22 14:03:50.919,-17.868,-6.022,-20.067,-16.795,-23.463,-15.470,-4.847,-6.934,-23.623,-9.162,-8.572,-5.026,-19.838,7.028,-11.010,-7.227,-15.665,-4.949,4.935
2019.07.22 14:03:50.923,-16.719,-5.022,-19.380,-15.963,-22.716,-14.289,-7.060,-6.678,-24.168,-7.562,-9.389,-3.551,-19.956,9.952,-10.173,-6.009,-14.375,-3.284,3.800
2019.07.22 14:03:50.927,-16.171,-3.437,-16.719,-14.510,-21.492,-13.090,-8.026,-6.919,-24.179,-6.654,-9.143,-3.201,-20.930,11.788,-10.272,-8.281,-11.991,-1.966,3.070
2019.07.22 14:03:50.931,-16.569,-1.326,-12.541,-12.953,-20.429,-12.111,-7.249,-7.643,-23.650,-6.634,-8.234,-3.867,-22.087,11.945,-10.513,-11.787,-8.825,-1.108,2.827
2019.07.22 14:03:50.935,-17.042,0.894,-8.295,-12.084,-19.709,-11.617,-4.917,-8.833,-22.564,-7.689,-7.333,-5.232,-22.478,10.456,-10.202,-14.046,-5.704,-0.514,2.656
2019.07.22 14:03:50.939,-16.209,2.585,-5.496,-12.488,-18.981,-11.894,-1.906,-10.404,-20.975,-9.886,-6.939,-6.866,-21.616,7.960,-9.333,-13.789,-3.550,0.146,2.032
2019.07.22 14:03:50.943,-13.452,3.217,-4.733,-14.083,-17.784,-13.069,0.584,-12.083,-19.171,-12.903,-7.107,-8.308,-19.849,5.385,-8.482,-11.543,-2.849,1.045,0.825
2019.07.22 14:03:50.947,-9.697,2.682,-5.386,-16.035,-16.117,-14.844,1.633,-13.380,-17.707,-15.879,-7.478,-9.175,-18.062,3.512,-8.134,-9.053,-3.404,2.034,-0.495
2019.07.22 14:03:50.951,-7.007,1.365,-6.258,-17.178,-14.678,-16.413,1.099,-13.737,-17.174,-17.633,-7.540,-9.278,-16.946,2.683,-8.073,-7.960,-4.535,2.708,-1.169
2019.07.22 14:03:50.955,-7.199,-0.073,-6.580,-16.707,-14.496,-16.764,-0.317,-12.826,-17.813,-17.253,-6.930,-8.680,-16.437,2.786,-7.443,-8.633,-5.573,2.691,-0.738
2019.07.22 14:03:50.959,-10.512,-1.052,-6.554,-14.708,-16.201,-15.262,-1.490,-10.810,-19.250,-14.686,-5.609,-7.613,-15.800,3.452,-5.470,-9.935,-6.263,1.893,0.575
2019.07.22 14:03:50.963,-15.310,-1.318,-7.006,-12.142,-19.441,-12.130,-1.553,-8.347,-20.638,-10.896,-3.839,-6.335,-14.247,4.304,-2.246,-10.103,-6.776,0.585,2.012
2019.07.22 14:03:50.967,-19.065,-0.944,-8.492,-10.278,-22.959,-8.451,-0.391,-6.308,-21.163,-7.419,-2.027,-5.023,-11.619,5.079,1.146,-8.130,-7.389,-0.783,2.844
2019.07.22 14:03:50.971,-19.909,-0.146,-10.658,-9.951,-25.298,-5.614,1.355,-5.345,-20.606,-5.565,-0.532,-3.789,-8.559,5.623,3.332,-4.673,-8.136,-1.859,2.897
2019.07.22 14:03:50.975,-17.659,0.927,-12.441,-11.122,-25.694,-4.539,2.753,-5.591,-19.515,-5.772,0.473,-2.796,-6.097,5.843,3.649,-1.751,-8.759,-2.562,2.608
2019.07.22 14:03:50.979,-13.660,2.259,-12.931,-13.028,-24.507,-5.197,3.184,-6.661,-18.825,-7.512,1.028,-2.282,-4.959,5.721,2.638,-1.370,-8.981,-3.046,2.589
2019.07.22 14:03:50.983,-9.675,3.913,-12.139,-14.740,-22.865,-6.685,2.665,-7.944,-19.155,-9.717,1.308,-2.420,-5.131,5.412,1.636,-3.974,-8.839,-3.508,3.080
2019.07.22 14:03:50.987,-6.743,5.931,-10.987,-15.740,-21.793,-7.793,1.720,-8.955,-20.275,-11.393,1.512,-3.079,-5.935,5.324,1.783,-7.873,-8.728,-4.000,3.764
2019.07.22 14:03:50.991,-4.798,8.273,-10.489,-16.108,-21.456,-7.626,0.923,-9.529,-21.179,-12.008,1.762,-3.717,-6.498,6.050,3.256,-10.135,-9.106,-4.398,4.085
2019.07.22 14:03:50.995,-3.211,10.787,-10.862,-16.288,-21.092,-5.966,0.481,-9.767,-20.739,-11.516,2.092,-3.610,-6.234,8.089,5.316,-8.440,-10.098,-4.516,3.784
2019.07.22 14:03:50.999,-1.636,13.162,-11.319,-16.680,-19.688,-3.244,0.132,-9.842,-18.519,-10.177,2.499,-2.327,-5.062,11.471,7.038,-2.649,-11.371,-4.276,3.168
2019.07.22 14:03:51.003,-0.409,14.873,-10.787,-17.399,-16.907,-0.279,-0.609,-9.859,-15.174,-8.434,3.010,-0.134,-3.310,15.511,8.091,4.989,-12.417,-3.773,2.875
2019.07.22 14:03:51.007,-0.203,15.236,-8.917,-18.338,-13.545,2.019,-2.075,-9.855,-12.140,-6.911,3.693,2.035,-1.471,18.914,8.869,11.168,-13.001,-3.211,3.324
2019.07.22 14:03:51.011,-1.322,13.653,-6.516,-19.397,-11.172,2.893,-4.207,-9.913,-10.808,-6.394,4.586,3.112,0.003,20.284,9.929,13.488,-13.385,-2.758,4.327
2019.07.22 14:03:51.015,-3.323,10.001,-4.996,-20.617,-11.153,1.946,-6.596,-10.218,-11.726,-7.621,5.606,2.581,0.808,18.837,11.259,11.751,-14.093,-2.453,5.189
2019.07.22 14:03:51.019,-5.334,4.900,-5.278,-22.093,-13.743,-0.699,-8.725,-10.998,-14.318,-10.885,6.510,0.824,0.822,14.918,12.067,7.785,-15.408,-2.222,5.221
2019.07.22 14:03:51.023,-6.773,-0.405,-7.094,-23.776,-17.883,-4.401,-10.232,-12.378,-17.284,-15.740,6.970,-1.188,0.096,9.948,11.302,4.032,-17.039,-1.973,4.223
2019.07.22 14:03:51.027,-7.822,-4.601,-9.275,-25.382,-21.818,-8.262,-11.042,-14.307,-19.369,-21.098,6.719,-2.641,-1.200,5.730,8.500,1.956,-18.298,-1.688,2.568
2019.07.22 14:03:51.031,-9.205,-7.017,-10.794,-26.558,-24.128,-11.573,-11.326,-16.619,-20.019,-25.750,5.687,-3.523,-2.889,3.441,4.250,1.306,-18.672,-1.433,0.844
2019.07.22 14:03:51.035,-11.470,-8.012,-11.640,-27.180,-24.480,-14.193,-11.372,-19.178,-19.554,-29.007,4.025,-4.623,-4.868,2.917,-0.120,0.615,-18.342,-1.291,-0.603
2019.07.22 14:03:51.039,-14.430,-8.744,-12.755,-27.534,-23.653,-16.548,-11.443,-21.956,-18.860,-30.991,2.031,-6.870,-7.104,2.731,-3.373,-1.603,-18.182,-1.292,-1.836
2019.07.22 14:03:51.043,-17.292,-10.413,-15.069,-28.186,-22.905,-19.193,-11.693,-24.925,-18.830,-32.365,0.025,-10.494,-9.494,1.082,-5.098,-5.852,-19.181,-1.397,-3.084
2019.07.22 14:03:51.047,-19.383,-13.464,-18.473,-29.594,-23.153,-22.245,-12.127,-27.843,-19.918,-33.710,-1.738,-14.669,-11.735,-3.001,-5.815,-11.442,-21.693,-1.549,-4.372
2019.07.22 14:03:51.051,-20.791,-17.291,-21.660,-31.717,-24.481,-25.115,-12.623,-30.136,-21.985,-35.027,-3.094,-17.941,-13.376,-8.939,-6.462,-17.054,-25.087,-1.737,-5.375
2019.07.22 14:03:51.055,-22.264,-20.619,-23.037,-33.917,-26.207,-26.805,-12.997,-31.047,-24.429,-35.761,-3.980,-19.162,-14.076,-14.876,-7.729,-21.523,-28.051,-2.003,-5.663
2019.07.22 14:03:51.059,-24.391,-22.295,-21.980,-35.229,-27.366,-26.577,-13.101,-30.016,-26.478,-35.302,-4.436,-18.229,-13.913,-18.785,-9.722,-24.306,-29.335,-2.393,-5.097
2019.07.22 14:03:51.063,-26.766,-21.943,-19.364,-34.847,-27.243,-24.506,-12.907,-27.059,-27.500,-33.549,-4.611,-16.097,-13.427,-19.701,-12.108,-25.466,-28.412,-2.893,-4.014
2019.07.22 14:03:51.067,-27.998,-20.092,-16.901,-32.531,-25.684,-21.486,-12.538,-22.859,-27.238,-31.086,-4.698,-14.075,-13.289,-18.238,-14.461,-25.372,-25.636,-3.419,-3.008
2019.07.22 14:03:51.071,-26.720,-17.764,-15.778,-28.697,-23.084,-18.677,-12.210,-18.461,-25.910,-28.819,-4.823,-12.951,-13.785,-16.071,-16.490,-24.439,-21.874,-3.872,-2.481
2019.07.22 14:03:51.075,-22.847,-15.848,-15.716,-24.182,-20.137,-16.800,-12.137,-14.751,-24.132,-27.376,-4.940,-12.597,-14.547,-14.790,-18.002,-23.071,-17.968,-4.210,-2.374
2019.07.22 14:03:51.079,-17.947,-14.673,-15.219,-19.829,-17.482,-15.773,-12.431,-12.051,-22.648,-26.700,-4.853,-12.298,-14.806,-14.952,-18.804,-21.701,-14.389,-4.456,-2.301
2019.07.22 14:03:51.083,-14.236,-13.947,-12.819,-16.127,-15.384,-14.886,-13.069,-10.078,-21.955,-26.129,-4.397,-11.478,-14.061,-15.970,-18.757,-20.767,-11.237,-4.635,-1.983
2019.07.22 14:03:51.087,-12.846,-12.998,-8.300,-13.067,-13.576,-13.315,-13.883,-8.258,-22.011,-24.839,-3.674,-10.217,-12.613,-16.793,-17.987,-20.539,-8.413,-4.676,-1.585
2019.07.22 14:03:51.091,-12.778,-11.113,-2.935,-10.271,-11.396,-10.571,-14.580,-6.164,-22.220,-22.310,-3.109,-9.141,-11.492,-16.762,-17.010,-20.911,-5.769,-4.393,-1.631
2019.07.22 14:03:51.095,-11.539,-7.837,1.434,-7.311,-8.222,-6.651,-14.793,-3.777,-21.781,-18.522,-3.236,-8.818,-11.737,-15.945,-16.522,-21.330,-3.149,-3.590,-2.558
2019.07.22 14:03:51.099,-7.165,-3.194,3.682,-4.063,-4.030,-1.932,-14.187,-1.461,-20.210,-13.860,-4.275,-9.187,-13.540,-14.775,-16.908,-20.960,-0.425,-2.238,-4.270
2019.07.22 14:03:51.103,-0.078,2.220,4.039,-0.896,0.300,2.965,-12.660,0.287,-17.724,-8.914,-5.842,-9.509,-15.967,-13.410,-17.841,-19.065,2.377,-0.591,-6.095
2019.07.22 14:03:51.107,6.790,7.325,3.630,1.442,3.262,7.242,-10.522,1.085,-15.191,-4.343,-7.046,-8.896,-17.516,-11.471,-18.345,-15.423,4.918,0.862,-7.207
2019.07.22 14:03:51.111,9.926,10.930,3.426,2.233,3.556,10.034,-8.505,0.822,-13.629,-0.812,-7.010,-6.991,-17.156,-8.429,-17.376,-10.572,6.566,1.625,-7.175
2019.07.22 14:03:51.115,7.869,12.287,3.530,1.278,1.033,10.715,-7.486,-0.329,-13.539,1.146,-5.488,-4.249,-15.040,-4.289,-14.538,-5.715,6.707,1.464,-6.225
2019.07.22 14:03:51.119,2.492,11.534,3.375,-0.829,-2.935,9.328,-8.005,-1.944,-14.527,1.391,-3.122,-1.600,-12.336,0.098,-10.397,-2.246,5.208,0.548,-4.990
2019.07.22 14:03:51.123,-2.177,9.686,2.557,-2.910,-6.047,6.819,-9.869,-3.437,-15.490,0.401,-1.113,0.243,-10.320,3.470,-6.136,-1.056,2.677,-0.643,-3.999
2019.07.22 14:03:51.127,-2.831,8.074,1.478,-3.824,-6.380,4.711,-12.159,-4.225,-15.304,-0.802,-0.489,1.282,-9.456,5.054,-2.816,-1.972,0.236,-1.574,-3.300
2019.07.22 14:03:51.131,0.696,7.528,1.153,-3.169,-3.587,4.256,-13.750,-3.980,-13.571,-1.140,-1.464,2.132,-9.189,5.182,-0.785,-3.698,-1.127,-1.923,-2.544
2019.07.22 14:03:51.135,5.363,7.865,2.310,-1.601,0.839,5.560,-14.048,-2.863,-10.949,-0.168,-3.362,3.420,-8.607,5.052,0.345,-4.450,-1.197,-1.705,-1.403
2019.07.22 14:03:51.139,7.292,8.077,4.558,-0.509,4.469,7.349,-13.454,-1.562,-8.815,1.520,-5.130,5.164,-7.356,5.743,1.196,-3.004,-0.681,-1.187,0.032
2019.07.22 14:03:51.143,4.785,7.118,6.393,-1.200,5.414,7.682,-13.167,-0.981,-8.470,2.527,-6.055,6.636,-6.028,7.265,2.055,0.435,-0.713,-0.691,1.225
2019.07.22 14:03:51.147,-0.367,4.720,6.123,-4.098,3.369,5.211,-14.383,-1.708,-10.356,1.487,-6.156,6.854,-5.670,8.445,2.705,4.190,-2.053,-0.424,1.562
2019.07.22 14:03:51.151,-4.281,1.616,3.055,-8.460,-0.451,0.145,-17.414,-3.584,-13.786,-2.021,-5.972,5.331,-6.828,7.805,2.752,6.053,-4.535,-0.420,0.817
2019.07.22 14:03:51.155,-4.012,-1.000,-1.948,-12.787,-4.324,-5.781,-21.331,-5.691,-17.316,-7.101,-5.981,2.526,-8.944,4.794,2.127,4.709,-7.176,-0.603,-0.659
2019.07.22 14:03:51.159,0.200,-2.348,-6.938,-15.653,-7.157,-10.335,-24.438,-6.865,-19.514,-11.975,-6.135,-0.352,-10.650,0.382,1.305,0.718,-8.824,-0.870,-2.154
2019.07.22 14:03:51.163,5.174,-2.563,-10.012,-16.403,-8.905,-12.086,-25.255,-6.403,-19.657,-14.966,-5.899,-2.073,-10.744,-3.471,1.046,-3.652,-8.882,-1.148,-3.052
2019.07.22 14:03:51.167,7.324,-2.421,-10.297,-15.329,-10.085,-11.079,-23.393,-4.493,-17.970,-15.372,-4.752,-2.128,-9.086,-5.116,1.867,-5.715,-7.603,-1.387,-3.175
2019.07.22 14:03:51.171,5.438,-2.541,-8.195,-13.300,-10.964,-8.478,-19.721,-2.059,-15.354,-13.674,-2.718,-0.970,-6.682,-4.298,3.670,-3.962,-5.809,-1.543,-2.798
2019.07.22 14:03:51.175,1.534,-2.749,-4.889,-11.183,-11.201,-5.575,-15.799,-0.113,-12.852,-11.034,-0.477,0.404,-4.907,-2.212,5.812,1.078,-4.325,-1.575,-2.372
2019.07.22 14:03:51.179,-0.839,-2.198,-1.602,-9.443,-10.262,-2.958,-12.988,0.901,-11.181,-8.483,1.046,1.204,-4.484,-0.550,7.542,7.237,-3.529,-1.476,-2.184
2019.07.22 14:03:51.183,0.546,-0.181,0.886,-8.128,-8.177,-0.445,-11.844,1.306,-10.569,-6.417,1.309,1.394,-5.031,-0.285,8.453,12.062,-3.310,-1.289,-2.199
2019.07.22 14:03:51.187,4.830,3.013,2.305,-7.098,-5.857,2.309,-12.111,1.806,-10.874,-4.674,0.506,1.645,-5.498,-1.148,8.624,14.153,-3.324,-1.086,-2.147
2019.07.22 14:03:51.191,8.731,5.954,2.734,-6.246,-4.593,5.128,-13.149,2.837,-11.807,-3.027,-0.615,2.752,-5.094,-2.112,8.402,13.656,-3.302,-0.926,-1.741
2019.07.22 14:03:51.195,9.033,6.849,2.465,-5.559,-5.081,7.180,-14.400,4.186,-13.109,-1.632,-1.314,4.937,-3.951,-2.422,8.043,11.733,-3.186,-0.827,-0.888
2019.07.22 14:03:51.199,4.937,4.718,1.931,-5.050,-6.838,7.493,-15.554,5.146,-14.607,-1.047,-1.368,7.551,-3.009,-2.285,7.506,9.562,-3.078,-0.770,0.247
2019.07.22 14:03:51.203,-1.476,0.105,1.576,-4.691,-8.548,5.674,-16.442,5.076,-16.205,-1.827,-1.164,9.387,-3.265,-2.662,6.525,7.659,-3.129,-0.731,1.292
2019.07.22 14:03:51.207,-6.857,-5.198,1.610,-4.427,-9.114,2.259,-16.889,3.918,-17.853,-4.021,-1.344,9.406,-5.002,-4.369,4.878,5.902,-3.464,-0.698,1.822
2019.07.22 14:03:51.211,-8.894,-9.220,1.799,-4.216,-8.532,-1.569,-16.732,2.267,-19.504,-6.981,-2.308,7.394,-7.578,-7.239,2.613,4.077,-4.131,-0.644,1.530
2019.07.22 14:03:51.215,-7.539,-10.871,1.570,-3.995,-7.809,-4.632,-15.982,0.978,-21.031,-9.633,-3.942,4.119,-9.879,-10.040,0.107,2.362,-5.018,-0.491,0.377
2019.07.22 14:03:51.219,-4.433,-10.303,0.475,-3.579,-7.963,-6.273,-14.890,0.629,-22.134,-11.032,-5.717,0.907,-11.022,-11.240,-2.072,1.329,-5.777,-0.097,-1.348
2019.07.22 14:03:51.223,-1.257,-8.425,-1.299,-2.635,-8.954,-6.453,-13.793,1.217,-22.316,-10.840,-7.027,-1.098,-10.774,-10.043,-3.381,1.507,-5.873,0.672,-3.122
2019.07.22 14:03:51.227,1.474,-6.099,-2.833,-0.868,-9.535,-5.494,-12.814,2.257,-21.043,-9.436,-7.471,-1.506,-9.452,-6.946,-3.492,2.904,-4.853,1.846,-4.409
2019.07.22 14:03:51.231,4.270,-3.670,-3.039,1.640,-8.244,-3.813,-11.707,3.116,-18.075,-7.645,-6.936,-0.786,-7.517,-3.438,-2.389,4.863,-2.744,3.273,-4.920
2019.07.22 14:03:51.235,7.495,-1.133,-1.524,4.191,-4.777,-1.861,-10.047,3.294,-13.787,-6.299,-5.499,0.130,-5.274,-1.080,-0.370,6.384,-0.287,4.637,-4.741
2019.07.22 14:03:51.239,10.371,1.372,0.903,5.629,-0.593,-0.196,-7.672,2.531,-9.236,-5.877,-3.330,0.429,-2.887,-0.627,2.042,6.647,1.264,5.571,-4.242
2019.07.22 14:03:51.243,11.154,3.294,2.587,4.925,1.870,0.544,-5.008,0.794,-5.823,-6.409,-0.702,-0.161,-0.615,-1.740,4.274,5.429,0.754,5.797,-3.819
2019.07.22 14:03:51.247,8.404,3.926,2.112,1.877,0.856,-0.089,-2.966,-1.685,-4.649,-7.589,1.956,-1.348,1.070,-3.393,5.897,3.186,-2.183,5.224,-3.654
2019.07.22 14:03:51.251,2.306,2.961,-0.671,-2.586,-3.422,-2.017,-2.414,-4.321,-5.926,-8.987,4.118,-2.576,1.674,-4.601,6.775,0.795,-6.836,3.955,-3.656
2019.07.22 14:03:51.255,-5.081,0.831,-4.452,-6.785,-8.839,-4.536,-3.586,-6.192,-8.801,-10.221,5.371,-3.397,1.059,-4.966,7.074,-0.900,-11.770,2.230,-3.609
2019.07.22 14:03:51.259,-10.912,-1.521,-7.324,-9.191,-12.745,-6.654,-5.875,-6.352,-11.745,-11.033,5.682,-3.693,-0.309,-4.728,7.127,-1.536,-15.591,0.356,-3.392
2019.07.22 14:03:51.263,-13.220,-3.285,-8.079,-9.257,-13.606,-7.665,-8.196,-4.359,-13.312,-11.288,5.463,-3.624,-1.521,-4.396,7.207,-1.480,-17.627,-1.366,-3.065
2019.07.22 14:03:51.267,-11.956,-4.295,-6.973,-7.623,-11.739,-7.553,-9.653,-0.685,-12.841,-10.948,5.310,-3.440,-1.760,-4.293,7.345,-1.708,-18.071,-2.685,-2.794
2019.07.22 14:03:51.271,-8.745,-4.982,-5.372,-5.544,-8.704,-6.921,-10.030,3.373,-10.706,-10.057,5.533,-3.317,-0.877,-4.353,7.258,-3.304,-17.565,-3.445,-2.695
2019.07.22 14:03:51.275,-5.630,-5.802,-4.592,-3.958,-6.008,-6.473,-9.774,6.360,-8.020,-8.747,5.815,-3.334,0.399,-4.289,6.428,-6.776,-16.601,-3.608,-2.783
2019.07.22 14:03:51.279,-3.769,-6.648,-4.835,-2.886,-4.181,-6.477,-9.525,7.509,-5.994,-7.232,5.305,-3.563,0.808,-3.959,4.296,-11.607,-15.211,-3.253,-3.062
2019.07.22 14:03:51.283,-2.942,-6.789,-5.063,-1.571,-2.850,-6.603,-9.579,7.177,-5.332,-5.780,3.184,-4.132,-0.706,-3.625,0.525,-16.399,-13.149,-2.528,-3.642
2019.07.22 14:03:51.287,-2.048,-5.437,-3.878,0.767,-1.521,-6.250,-9.701,6.523,-5.956,-4.639,-0.643,-5.160,-4.283,-3.846,-4.730,-19.634,-10.322,-1.591,-4.705
2019.07.22 14:03:51.291,-0.076,-2.497,-0.698,4.172,-0.207,-5.088,-9.380,6.613,-7.150,-3.939,-5.213,-6.611,-8.908,-5.050,-10.680,-20.594,-7.082,-0.585,-6.278
2019.07.22 14:03:51.295,3.154,1.123,3.711,7.779,0.668,-3.361,-8.296,7.636,-7.968,-3.614,-8.855,-8.183,-12.826,-7.069,-16.022,-19.776,-4.103,0.341,-8.009
2019.07.22 14:03:51.299,6.921,3.965,7.749,10.358,0.936,-1.725,-6.621,8.793,-7.681,-3.410,-10.091,-9.402,-14.431,-9.033,-19.401,-18.486,-1.975,1.009,-9.210
2019.07.22 14:03:51.303,10.078,4.937,10.108,11.161,1.172,-0.776,-4.939,8.972,-6.060,-2.996,-8.552,-9.882,-13.152,-9.819,-20.072,-17.850,-0.857,1.253,-9.242
2019.07.22 14:03:51.307,11.685,4.037,10.632,10.421,2.437,-0.622,-3.886,7.667,-3.416,-2.151,-5.291,-9.613,-9.816,-8.844,-18.394,-18.023,-0.481,1.029,-8.017
2019.07.22 14:03:51.311,11.437,2.354,10.283,9.145,5.436,-0.820,-3.773,5.430,-0.416,-0.901,-2.237,-9.040,-6.212,-6.632,-15.767,-18.196,-0.445,0.530,-6.211
2019.07.22 14:03:51.315,9.752,1.362,10.319,8.379,9.840,-0.678,-4.440,3.509,2.259,0.496,-1.065,-8.810,-4.072,-4.654,-13.880,-17.382,-0.511,0.187,-4.921
2019.07.22 14:03:51.319,7.575,2.014,11.378,8.533,14.432,0.338,-5.391,2.955,4.237,1.746,-2.200,-9.328,-4.020,-4.381,-13.643,-15.279,-0.616,0.482,-4.944
2019.07.22 14:03:51.323,6.034,4.276,13.178,9.245,18.026,2.371,-6.073,3.903,5.628,2.786,-4.595,-10.404,-5.184,-6.106,-14.495,-12.446,-0.635,1.684,-6.185
2019.07.22 14:03:51.327,6.031,7.335,14.953,9.846,20.370,5.216,-6.130,5.560,6.918,3.927,-6.442,-11.281,-5.725,-8.417,-14.657,-9.651,-0.162,3.655,-7.664
2019.07.22 14:03:51.331,7.873,10.233,16.166,9.975,22.230,8.495,-5.531,6.846,8.630,5.720,-6.352,-11.087,-4.025,-8.867,-12.287,-7.029,1.359,5.913,-8.195
2019.07.22 14:03:51.335,11.093,12.393,16.834,9.822,24.536,11.780,-4.547,7.154,10.926,8.557,-4.218,-9.446,0.241,-5.563,-6.830,-3.932,4.169,7.896,-7.257
2019.07.22 14:03:51.339,14.567,13.700,17.234,9.802,27.300,14.583,-3.637,6.610,13.417,12.253,-1.187,-6.855,5.847,1.343,0.389,0.254,7.725,9.263,-5.402
2019.07.22 14:03:51.343,16.950,14.194,17.335,9.962,29.289,16.322,-3.272,5.696,15.315,15.891,1.187,-4.504,10.751,9.373,6.816,5.021,10.678,9.984,-3.878
2019.07.22 14:03:51.347,17.239,13.748,16.546,9.690,28.792,16.408,-3.751,4.641,15.860,18.124,2.006,-3.631,13.325,15.000,10.174,8.466,11.466,10.181,-3.724
2019.07.22 14:03:51.351,15.183,12.079,14.129,8.040,24.956,14.513,-5.093,3.149,14.749,17.835,1.526,-4.758,13.230,15.752,9.815,8.379,9.242,9.869,-5.004
2019.07.22 14:03:51.355,11.338,9.077,9.984,4.514,18.594,10.858,-7.056,0.743,12.282,14.793,0.778,-7.333,11.383,11.734,6.971,4.032,4.528,8.866,-6.770
2019.07.22 14:03:51.359,6.776,5.177,5.137,-0.308,11.838,6.313,-9.271,-2.594,9.154,9.905,0.656,-9.997,9.115,5.520,3.773,-2.777,-0.874,6.989,-7.763
2019.07.22 14:03:51.363,2.638,1.388,1.438,-4.820,6.874,2.152,-11.407,-6.053,6.074,4.855,1.183,-11.364,7.219,0.461,1.778,-8.482,-4.750,4.383,-7.322
2019.07.22 14:03:51.367,-0.235,-1.119,0.539,-7.192,4.736,-0.456,-13.242,-8.312,3.477,1.298,1.547,-10.801,5.606,-1.413,1.082,-10.010,-5.616,1.689,-5.823
2019.07.22 14:03:51.371,-1.481,-1.604,2.853,-6.423,4.998,-0.951,-14.598,-8.352,1.506,0.049,0.834,-8.761,3.742,-0.479,0.598,-6.961,-3.468,-0.189,-4.337
2019.07.22 14:03:51.375,-1.213,-0.164,7.231,-2.912,6.449,0.387,-15.244,-6.180,0.192,0.743,-1.135,-6.474,1.413,1.086,-0.828,-2.006,0.321,-0.601,-3.823
2019.07.22 14:03:51.379,0.091,2.354,11.635,1.827,8.066,2.631,-14.926,-2.903,-0.417,2.156,-3.544,-5.225,-0.891,1.053,-3.400,0.906,3.855,0.406,-4.471
2019.07.22 14:03:51.383,1.775,4.856,14.362,6.116,9.466,4.724,-13.559,-0.057,-0.290,2.987,-5.124,-5.676,-2.294,-1.286,-6.227,-0.721,5.781,2.081,-5.673
2019.07.22 14:03:51.387,3.244,6.604,14.988,9.054,10.641,6.024,-11.443,1.322,0.434,2.610,-5.056,-7.613,-2.253,-4.792,-8.082,-6.243,5.936,3.442,-6.565
2019.07.22 14:03:51.391,4.219,7.559,14.403,10.816,11.443,6.602,-9.275,1.252,1.410,1.354,-3.528,-10.190,-1.027,-7.477,-8.350,-12.443,5.214,3.910,-6.671
2019.07.22 14:03:51.395,4.858,8.285,13.968,12.196,11.458,7.097,-7.824,0.634,2.279,0.170,-1.515,-12.437,0.538,-7.953,-7.395,-15.808,4.824,3.639,-6.143
2019.07.22 14:03:51.399,5.628,9.518,14.436,13.808,10.452,8.241,-7.455,0.557,2.978,-0.056,0.000,-13.699,1.716,-6.244,-6.104,-14.760,5.447,3.295,-5.490
2019.07.22 14:03:51.403,6.927,11.677,15.415,15.581,8.890,10.317,-7.866,1.589,3.851,0.925,0.732,-13.793,2.484,-3.490,-5.077,-10.252,6.829,3.469,-5.078
2019.07.22 14:03:51.407,8.668,14.590,15.720,16.907,7.877,12.907,-8.287,3.548,5.381,2.645,1.145,-12.894,3.449,-0.955,-4.196,-4.546,8.038,4.202,-4.845
2019.07.22 14:03:51.411,10.152,17.556,14.321,17.230,8.373,15.078,-8.074,5.779,7.668,4.322,1.877,-11.337,5.174,0.799,-2.913,0.594,8.161,4.976,-4.443
2019.07.22 14:03:51.415,10.375,19.684,11.174,16.563,10.293,15.929,-7.236,7.655,10.098,5.435,3.064,-9.463,7.502,2.014,-0.936,4.771,6.949,5.160,-3.621
2019.07.22 14:03:51.419,8.642,20.327,7.356,15.483,12.325,15.133,-6.472,8.893,11.556,6.046,4.172,-7.577,9.497,3.200,1.323,8.407,4.996,4.535,-2.493
2019.07.22 14:03:51.423,5.102,19.370,4.417,14.636,12.805,13.135,-6.623,9.520,11.153,6.642,4.474,-5.944,10.089,4.546,2.971,11.543,3.328,3.463,-1.463
2019.07.22 14:03:51.427,0.795,17.253,3.432,14.186,11.038,10.857,-7.944,9.641,8.949,7.660,3.732,-4.776,8.896,5.765,3.312,13.304,2.718,2.584,-0.904
2019.07.22 14:03:51.431,-2.887,14.688,4.356,13.689,7.980,9.095,-9.798,9.246,6.069,9.059,2.461,-4.216,6.536,6.410,2.400,12.564,3.179,2.303,-0.894
2019.07.22 14:03:51.435,-5.035,12.229,6.093,12.492,5.594,8.024,-11.075,8.232,4.006,10.275,1.517,-4.334,4.148,6.267,0.984,9.165,3.965,2.495,-1.220
2019.07.22 14:03:51.439,-5.831,9.922,7.131,10.329,5.277,7.136,-11.054,6.563,3.559,10.598,1.342,-5.167,2.529,5.468,-0.084,4.462,4.051,2.672,-1.623
2019.07.22 14:03:51.443,-6.534,7.253,6.321,7.588,6.562,5.649,-10.048,4.395,4.182,9.668,1.542,-6.730,1.589,4.268,-0.485,0.559,2.759,2.431,-2.033
2019.07.22 14:03:51.447,-8.790,3.477,3.329,5.039,7.203,3.097,-9.287,2.040,4.298,7.743,1.163,-8.954,0.562,2.776,-0.594,-1.198,0.113,1.812,-2.570
2019.07.22 14:03:51.451,-13.666,-1.842,-1.385,3.253,4.705,-0.304,-10.064,-0.164,2.412,5.538,-0.524,-11.584,-1.274,0.937,-1.107,-1.197,-3.245,1.264,-3.336
2019.07.22 14:03:51.455,-20.932,-8.374,-6.907,2.219,-1.829,-3.738,-12.797,-1.949,-1.795,3.790,-3.408,-14.118,-4.000,-1.230,-2.485,-1.138,-6.468,1.262,-4.210
2019.07.22 14:03:51.459,-29.051,-14.967,-12.240,1.500,-10.924,-6.220,-16.684,-3.101,-7.196,2.900,-6.606,-15.903,-7.069,-3.388,-4.678,-2.545,-8.907,1.904,-4.864
2019.07.22 14:03:51.463,-35.870,-20.064,-16.560,0.796,-19.657,-7.064,-20.250,-3.378,-11.994,2.908,-9.142,-16.375,-9.851,-4.883,-7.245,-5.430,-10.294,2.822,-4.994
2019.07.22 14:03:51.467,-39.691,-22.412,-19.357,0.400,-25.597,-6.102,-22.352,-2.507,-14.959,3.751,-10.658,-15.303,-12.144,-5.038,-9.651,-8.218,-10.652,3.451,-4.568
2019.07.22 14:03:51.471,-40.102,-21.659,-20.549,1.116,-28.290,-3.610,-22.889,-0.320,-16.176,5.520,-11.540,-12.867,-14.164,-3.486,-11.423,-8.940,-10.143,3.430,-3.849
2019.07.22 14:03:51.475,-38.137,-18.515,-20.559,3.622,-29.219,-0.110,-22.703,3.035,-16.769,8.417,-12.385,-9.519,-16.062,-0.345,-12.107,-6.695,-8.996,2.813,-3.174
2019.07.22 14:03:51.479,-35.643,-14.389,-20.230,7.786,-30.345,3.760,-22.800,6.998,-17.861,12.409,-13.318,-5.743,-17.494,3.856,-11.248,-2.227,-7.542,1.970,-2.676
2019.07.22 14:03:51.483,-34.209,-10.713,-20.474,12.491,-32.461,7.284,-23.519,10.735,-19.628,16.873,-13.810,-1.917,-17.750,8.340,-8.614,2.721,-6.204,1.302,-2.201
2019.07.22 14:03:51.487,-34.287,-8.342,-21.764,16.210,-34.634,9.737,-24.276,13.476,-21.182,20.629,-13.192,1.643,-16.412,12.248,-4.553,6.603,-5.340,1.040,-1.506
2019.07.22 14:03:51.491,-35.022,-7.328,-23.767,17.936,-35.125,10.618,-24.027,14.875,-21.360,22.496,-11.421,4.548,-13.952,14.801,-0.134,8.849,-4.987,1.244,-0.550
2019.07.22 14:03:51.495,-34.919,-7.110,-25.444,17.814,-32.965,9.975,-22.056,15.146,-19.721,22.058,-9.374,6.333,-11.647,15.557,3.260,9.746,-4.740,1.930,0.375
2019.07.22 14:03:51.499,-32.912,-6.931,-25.653,17.002,-28.895,8.575,-18.475,14.910,-16.946,20.099,-8.345,6.672,-10.741,14.698,4.721,9.821,-3.935,3.133,0.829
2019.07.22 14:03:51.503,-29.141,-6.215,-23.911,16.882,-24.921,7.669,-14.130,14.824,-14.331,18.301,-9.079,5.679,-11.471,13.130,4.421,9.406,-2.090,4.820,0.559
2019.07.22 14:03:51.507,-24.917,-4.730,-20.795,18.175,-22.892,8.383,-10.066,15.222,-12.817,18.292,-11.137,3.999,-12.783,12.131,3.509,8.731,0.687,6.743,-0.272
2019.07.22 14:03:51.511,-21.896,-2.567,-17.677,20.586,-23.227,11.055,-6.997,15.966,-12.360,20.626,-13.128,2.533,-13.058,12.619,3.279,8.207,3.652,8.427,-1.183
2019.07.22 14:03:51.515,-21.036,-0.055,-15.921,23.134,-24.792,14.962,-5.113,16.571,-12.125,24.382,-13.656,1.898,-11.322,14.503,4.224,8.404,5.820,9.363,-1.689
2019.07.22 14:03:51.519,-22.070,2.287,-16.100,24.833,-25.929,18.672,-4.240,16.515,-11.307,27.703,-12.260,2.041,-7.995,16.668,5.740,9.602,6.530,9.303,-1.608
2019.07.22 14:03:51.523,-23.838,3.800,-17.760,25.193,-25.787,20.820,-4.103,15.546,-9.848,28.948,-9.621,2.334,-4.583,17.762,6.727,11.372,5.780,8.407,-1.082
2019.07.22 14:03:51.527,-25.198,3.807,-19.877,24.235,-24.885,20.837,-4.459,13.809,-8.468,27.708,-6.947,2.112,-2.547,17.276,6.569,12.742,4.096,7.135,-0.367
2019.07.22 14:03:51.531,-25.823,1.879,-21.609,22.161,-24.514,19.175,-5.065,11.735,-7.996,25.008,-5.080,1.246,-2.260,16.060,5.653,12.932,2.068,5.936,0.411
2019.07.22 14:03:51.535,-26.287,-1.859,-22.770,19.076,-25.548,16.928,-5.632,9.768,-8.591,22.571,-4.049,0.256,-2.871,15.748,4.952,12.007,-0.055,5.012,1.273
2019.07.22 14:03:51.539,-27.421,-6.604,-23.688,15.033,-27.632,15.132,-5.873,8.118,-9.499,21.652,-3.345,-0.183,-3.111,17.419,5.028,10.739,-2.391,4.293,2.175
2019.07.22 14:03:51.543,-29.484,-11.092,-24.649,10.313,-29.381,14.218,-5.637,6.682,-9.556,22.246,-2.555,0.047,-2.329,20.509,5.377,9.690,-5.092,3.642,2.792
2019.07.22 14:03:51.547,-31.805,-14.115,-25.448,5.595,-29.419,13.931,-4.967,5.204,-7.999,23.180,-1.735,0.203,-0.882,22.931,4.749,8.345,-7.971,3.046,2.573
2019.07.22 14:03:51.551,-33.185,-15.104,-25.477,1.759,-27.402,13.676,-4.019,3.543,-4.972,22.999,-1.217,-0.894,0.393,22.444,2.262,5.257,-10.471,2.647,1.114
2019.07.22 14:03:51.555,-32.737,-14.409,-24.287,-0.600,-24.267,12.994,-2.902,1.862,-1.356,20.984,-1.091,-3.932,1.067,18.328,-1.634,-0.668,-12.009,2.569,-1.420
2019.07.22 14:03:51.559,-30.523,-13.094,-22.125,-1.567,-21.573,11.840,-1.610,0.573,1.866,17.619,-0.942,-8.426,1.565,12.071,-5.239,-8.748,-12.420,2.750,-4.176
2019.07.22 14:03:51.563,-27.536,-12.325,-19.932,-1.869,-20.463,10.525,-0.111,0.054,4.168,14.212,-0.139,-12.866,2.740,6.474,-6.757,-16.309,-12.092,2.935,-6.004
2019.07.22 14:03:51.567,-25.087,-12.722,-18.730,-2.380,-21.022,9.448,1.490,0.334,5.588,11.986,1.555,-15.664,5.006,3.813,-5.636,-20.155,-11.663,2.861,-6.116
2019.07.22 14:03:51.571,-24.069,-14.051,-18.855,-3.529,-22.428,8.834,2.908,0.979,6.404,11.315,3.636,-16.230,7.805,4.400,-3.002,-18.764,-11.505,2.459,-4.580
2019.07.22 14:03:51.575,-24.576,-15.456,-19.659,-5.053,-23.655,8.649,3.830,1.296,6.781,11.606,5.142,-15.324,9.945,6.619,-0.799,-13.476,-11.458,1.887,-2.275
2019.07.22 14:03:51.579,-26.029,-16.047,-19.971,-6.265,-24.148,8.686,4.145,0.748,6.708,11.871,5.369,-14.404,10.518,8.335,-0.328,-7.625,-11.036,1.346,-0.309
2019.07.22 14:03:51.583,-27.590,-15.480,-18.982,-6.614,-24.008,8.737,4.043,-0.709,6.219,11.508,4.424,-14.451,9.628,8.522,-1.357,-4.174,-9.958,0.865,0.673
2019.07.22 14:03:51.587,-28.548,-14.135,-16.883,-6.101,-23.666,8.716,3.869,-2.586,5.580,10.719,3.119,-15.201,8.267,7.859,-2.505,-3.710,-8.529,0.255,0.828
2019.07.22 14:03:51.591,-28.519,-12.819,-14.724,-5.254,-23.426,8.683,3.853,-4.155,5.187,10.283,2.311,-15.391,7.480,7.927,-2.488,-4.356,-7.528,-0.704,0.863
2019.07.22 14:03:51.595,-27.521,-12.193,-13.618,-4.715,-23.258,8.784,3.970,-4.856,5.225,10.886,2.272,-13.814,7.536,9.763,-1.145,-3.608,-7.635,-2.000,1.449
2019.07.22 14:03:51.599,-25.984,-12.326,-13.887,-4.796,-22.947,9.156,4.036,-4.551,5.444,12.538,2.641,-10.357,7.847,13.002,0.646,-0.505,-8.861,-3.292,2.730
2019.07.22 14:03:51.603,-24.654,-12.668,-14.814,-5.317,-22.352,9.851,3.964,-3.472,5.349,14.510,2.975,-6.160,7.704,16.265,2.022,3.706,-10.436,-4.104,4.300
2019.07.22 14:03:51.607,-24.257,-12.433,-15.170,-5.807,-21.490,10.820,3.887,-1.974,4.739,15.832,3.350,-2.797,7.138,18.381,3.140,6.898,-11.263,-4.154,5.587
2019.07.22 14:03:51.611,-24.972,-11.124,-14.072,-5.846,-20.352,11.963,4.029,-0.303,4.137,15.996,4.393,-1.118,7.110,19.357,5.185,8.120,-10.613,-3.555,6.303
2019.07.22 14:03:51.615,-26.043,-8.842,-11.500,-5.257,-18.683,13.218,4.427,1.456,4.657,15.352,6.660,-0.695,8.778,20.301,9.272,8.495,-8.509,-2.710,6.591
2019.07.22 14:03:51.619,-25.948,-6.187,-8.114,-4.049,-16.006,14.646,4.805,3.265,7.273,14.912,9.895,-0.280,12.425,22.414,15.219,10.138,-5.550,-1.974,6.776
2019.07.22 14:03:51.623,-23.238,-3.846,-4.601,-2.234,-11.989,16.415,4.781,5.021,11.970,15.712,12.889,1.129,16.970,25.947,21.274,14.076,-2.356,-1.359,6.988
2019.07.22 14:03:51.627,-17.605,-2.168,-1.145,0.252,-6.901,18.692,4.255,6.565,17.438,18.149,14.207,3.487,20.532,29.997,25.181,19.099,0.888,-0.538,7.001
2019.07.22 14:03:51.631,-10.393,-1.020,2.511,3.418,-1.771,21.468,3.624,7.785,21.642,21.728,13.241,5.801,21.674,33.243,25.765,22.684,4.386,0.859,6.445
